%OpenBCI Raw EEG Data
%Number of channels = 16
%Sample Rate = 125 Hz
%Board = OpenBCI_GUI$BoardCytonSerialDaisy
Sample Index, EXG Channel 0, EXG Channel 1, EXG Channel 2, EXG Channel 3, EXG Channel 4, EXG Channel 5, EXG Channel 6, EXG Channel 7, EXG Channel 8, EXG Channel 9, EXG Channel 10, EXG Channel 11, EXG Channel 12, EXG Channel 13, EXG Channel 14, EXG Channel 15, Accel Channel 0, Accel Channel 1, Accel Channel 2, Other, Other, Other, Other, Other, Other, Other, Analog Channel 0, Analog Channel 1, Analog Channel 2, Timestamp, Other, Timestamp (Formatted)
122.0, -13053.128189221407, -12871.609672499857, -7632.003144264597, -12560.33927921525, -14160.545368259594, -10842.808883525, -14035.420302798784, -12337.827663162669, -12315.990008829835, -14576.667794784045, -11127.793625330165, -10990.531562630125, -10587.596665334304, -14659.682173691055, -12227.074769386623, -18615.24803820229, 0.0, 0.0, 0.0, 192.0, 0.0, 0.0, 0.0, 0.0, 0.0, 0.0, 0.0, 0.0, 0.0, 1.644586593158386E9, 0.0, 2022-02-12 00:36:33.158
124.0, -13110.281599793625, -12954.780513618054, -7694.744490950644, -12584.166238804608, -14191.18960990782, -10895.648407417346, -14065.215178157709, -12420.998504280866, -12290.598427128605, -14554.628974751113, -11091.404985356927, -10966.346975129483, -10565.624900534738, -14658.497531234925, -12192.496620714262, -18620.478346404834, 0.0, 0.0, 0.0, 192.0, 0.0, 0.0, 0.0, 0.0, 0.0, 0.0, 0.0, 0.0, 0.0, 1.644586593158391E9, 0.0, 2022-02-12 00:36:33.158
0.0, -7307.321704306806, -6819.58428854755, -4246.406763363691, -7127.993658541877, -7071.667262514504, -5453.356260461362, -7175.915798654056, -5916.394998597503, -6172.635397033143, -7306.293524061862, -5590.975951072687, -5521.037342672032, -5312.920250048667, -7354.997975229976, -6131.26231804637, -9310.350931924693, 0.012, -0.028, 0.986, 192.0, 0.0, 48.0, 127.5, 16.0, 15.0, 104.0, 0.0, 0.0, 0.0, 1.644586593248816E9, 0.0, 2022-02-12 00:36:33.248
2.0, -14616.386844681127, -13626.070454844292, -8484.38691906773, -14257.261366517707, -14135.824338892024, -10913.798023915057, -14348.434132150905, -11817.926087132226, -14120.64750440687, -15681.91685461007, -12401.954818004944, -11458.197111868514, -10831.364790363883, -15154.706258142742, -13755.397648262699, -20446.66057189233, 0.012, -0.028, 0.986, 192.0, 0.0, 0.0, 0.0, 0.0, 0.0, 0.0, 0.0, 0.0, 0.0, 1.644586593256271E9, 0.0, 2022-02-12 00:36:33.256
4.0, -14617.862059815177, -13675.244292645966, -8493.975817439057, -14237.278906974663, -14128.448263221773, -10899.202334785741, -14345.416646649439, -11825.190404080202, -14119.664027650837, -15673.445543461508, -12392.812954522724, -11435.152463335093, -10814.936258189233, -15144.223289993202, -13744.95938360207, -20447.934621326283, 0.012, -0.028, 0.986, 192.0, 0.0, 0.0, 0.0, 0.0, 0.0, 0.0, 0.0, 0.0, 0.0, 1.644586593263278E9, 0.0, 2022-02-12 00:36:33.263
6.0, -14622.42181568406, -13667.823513486805, -8494.48990756153, -14254.668564160893, -14142.015772106144, -10906.332541266984, -14353.17270197543, -11823.2905058015, -14128.045931821578, -15702.100479853212, -12399.205553436943, -11439.73457094843, -10833.66702004278, -15162.797589635562, -13764.405401278187, -20453.38844697338, 0.012, -0.028, 0.986, 192.0, 0.0, 0.0, 0.0, 0.0, 0.0, 0.0, 0.0, 0.0, 0.0, 1.644586593270565E9, 0.0, 2022-02-12 00:36:33.270
8.0, -14618.040873770819, -13648.84688244425, -8492.500602305008, -14250.511139692206, -14132.382170245906, -10902.398634242849, -14340.476911124815, -11806.459642226655, -14109.918667068323, -15682.587406943729, -12387.470887597907, -11440.807454682286, -10811.516441287571, -15147.307830728036, -13747.172206303145, -20443.240754990667, 0.004, -0.024, 0.99, 192.0, 0.0, 16.0, 127.5, 32.0, 15.0, 120.0, 0.0, 0.0, 0.0, 1.644586593278511E9, 0.0, 2022-02-12 00:36:33.278
10.0, -14618.778481337844, -13652.736085979474, -8505.956352467103, -14251.20404377032, -14136.249022036674, -10903.113890065419, -14345.394294904983, -11823.134043590313, -14132.583335946005, -15699.820601918771, -12402.290094171774, -11461.46046655899, -10823.295810615518, -15162.641127424376, -13766.506465256985, -20453.321391740013, 0.004, -0.024, 0.99, 192.0, 0.0, 0.0, 0.0, 0.0, 0.0, 0.0, 0.0, 0.0, 0.0, 1.644586593285721E9, 0.0, 2022-02-12 00:36:33.285
12.0, -14621.617152883668, -13653.406638313132, -8501.418948342676, -14266.604395700026, -14148.207205320265, -10910.959352369233, -14356.257242710262, -11817.76962492104, -14131.80102489007, -15697.071337350768, -12409.532059375295, -11462.689812504032, -10822.446444326217, -15168.832560638495, -13764.785380933927, -20451.33208648349, 0.004, -0.024, 0.99, 192.0, 0.0, 0.0, 0.0, 0.0, 0.0, 0.0, 0.0, 0.0, 0.0, 1.644586593293121E9, 0.0, 2022-02-12 00:36:33.293
14.0, -14638.716237391978, -13672.539731566874, -8500.457823331097, -14243.20211925532, -14125.542536442583, -10894.620227172403, -14335.760693044745, -11823.491671501599, -14127.710655654748, -15701.519334497374, -12403.430033138995, -11446.462446029478, -10831.163624663786, -15162.685830913286, -13759.800941920394, -20458.015258075626, 0.004, -0.024, 0.99, 192.0, 0.0, 0.0, 0.0, 0.0, 0.0, 0.0, 0.0, 0.0, 0.0, 1.644586593301146E9, 0.0, 2022-02-12 00:36:33.301
16.0, -14634.51410943438, -13674.66314729013, -8493.506430805497, -14265.866788133, -14137.61247844845, -10904.700863921746, -14340.901594269466, -11814.059235341458, -14141.278164539119, -15701.496982752918, -12407.878030285601, -11464.07562066026, -10834.851662498912, -15159.221310522713, -13765.120657100757, -20456.584746430486, 0.007, -0.024, 0.991, 192.0, 0.0, 40.0, 127.5, 32.0, 15.5, 0.0, 0.0, 0.0, 0.0, 1.64458659331533E9, 0.0, 2022-02-12 00:36:33.315
18.0, -14617.973818537454, -13656.781751725883, -8484.856305701293, -14249.550014680626, -14137.187795303798, -10904.723215666201, -14339.828710535612, -11806.481993971109, -14116.378321215907, -15690.276407036354, -12388.789640520768, -11448.943489664018, -10814.019836666565, -15156.539101188077, -13745.048790579891, -20449.76746437162, 0.007, -0.024, 0.991, 192.0, 0.0, 0.0, 0.0, 0.0, 0.0, 0.0, 0.0, 0.0, 0.0, 1.644586593323027E9, 0.0, 2022-02-12 00:36:33.323
20.0, -14624.36641745167, -13677.367708369222, -8503.251791388011, -14252.187520526353, -14135.489062725195, -10894.329654494484, -14330.485681353293, -11816.674389442729, -14124.9837428312, -15709.454203779007, -12404.480565128395, -11450.239890842426, -10816.14325238982, -15168.944319360771, -13760.695011698606, -20458.059961564537, 0.007, -0.024, 0.991, 192.0, 0.0, 0.0, 0.0, 0.0, 0.0, 0.0, 0.0, 0.0, 0.0, 1.644586593330866E9, 0.0, 2022-02-12 00:36:33.330
22.0, -14619.22551622695, -13646.879928932183, -8489.527820292453, -14272.43820100286, -14142.485158739706, -10901.191640042263, -14332.609097076547, -11810.348845761877, -14129.342332999986, -15716.83027944926, -12414.225925710909, -11464.299138104814, -10820.211269880685, -15161.791761135073, -13762.594909977308, -20450.795644616563, 0.007, -0.024, 0.991, 192.0, 0.0, 0.0, 0.0, 0.0, 0.0, 0.0, 0.0, 0.0, 0.0, 1.644586593337722E9, 0.0, 2022-02-12 00:36:33.337
24.0, -14638.626830414158, -13673.143228667168, -8487.024424913458, -14243.649154144427, -14127.643600421383, -10891.312168993018, -14326.64118130698, -11806.660807926752, -14121.407463718351, -15707.755471200404, -12389.013157965323, -11461.773390981363, -10823.027589682055, -15154.95212733175, -13753.073066839346, -20455.28834525208, 0.007, -0.024, 0.991, 192.0, 0.0, 0.0, 0.0, 0.0, 0.0, 0.0, 0.0, 0.0, 0.0, 1.644586593345393E9, 0.0, 2022-02-12 00:36:33.345
26.0, -14616.006865025385, -13679.267606647922, -8489.147840636711, -14265.978546855278, -14137.590126703994, -10902.644503431859, -14342.98030650381, -11816.249706298078, -14126.660123665348, -15715.891506182135, -12396.053957468745, -11450.999850153907, -10822.737017004136, -15172.006508351149, -13772.496732771007, -20459.602231931953, 0.0115, -0.025, 0.9895, 192.0, 0.0, 64.0, 127.5, 24.0, 15.0, 112.0, 0.0, 0.0, 0.0, 1.644586593353358E9, 0.0, 2022-02-12 00:36:33.353
28.0, -14639.587955425735, -13684.229693917001, -8493.752299994505, -14269.018384101199, -14136.293725525586, -10896.274256262095, -14343.27087918173, -11812.047578340482, -14127.84476612148, -15709.29774156782, -12403.36297790563, -11448.831730941742, -10819.563069291482, -15152.851063352951, -13761.164398332168, -20457.747037142162, 0.0115, -0.025, 0.9895, 192.0, 0.0, 0.0, 0.0, 0.0, 0.0, 0.0, 0.0, 0.0, 0.0, 1.644586593361558E9, 0.0, 2022-02-12 00:36:33.361
30.0, -14655.792970155833, -13690.801106786861, -8506.515146078485, -14267.118485822499, -14136.629001692416, -10910.758186669134, -14344.477873382315, -11834.712247218162, -14151.112932099455, -15727.067378409789, -12413.26480069933, -11471.384641097146, -10833.868185742878, -15174.778124663608, -13779.358718318786, -20476.164874573336, 0.0115, -0.025, 0.9895, 192.0, 0.0, 0.0, 0.0, 0.0, 0.0, 0.0, 0.0, 0.0, 0.0, 1.644586593367559E9, 0.0, 2022-02-12 00:36:33.367
32.0, -14648.036914829841, -13666.661222775128, -8499.027311685957, -14284.530494753182, -14145.904975641368, -10925.823262432012, -14341.348629158572, -11814.975656864126, -14161.238272337709, -15728.028503421368, -12426.45232992796, -11476.190266155038, -10831.52125257507, -15182.556531734053, -13777.615282251274, -20469.638165192388, 0.0115, -0.025, 0.9895, 192.0, 0.0, 0.0, 0.0, 0.0, 0.0, 0.0, 0.0, 0.0, 0.0, 1.644586593375358E9, 0.0, 2022-02-12 00:36:33.375
34.0, -14652.753132909911, -13670.930405966094, -8504.570544310875, -14263.341041009551, -14132.873908623924, -10902.219820287208, -14337.83940527909, -11807.711339916152, -14154.979783890223, -15695.372604772165, -12418.182184479498, -11470.758792252398, -10823.653438526802, -15179.539046232589, -13771.066221125868, -20469.392296003378, 0.0115, -0.025, 0.9895, 192.0, 0.0, 0.0, 0.0, 0.0, 0.0, 0.0, 0.0, 0.0, 0.0, 1.644586593383246E9, 0.0, 2022-02-12 00:36:33.383
36.0, -14657.446999245525, -13709.196592473578, -8506.358683867298, -14279.523703995194, -14140.071170338533, -10902.01865458711, -14355.944318287888, -11820.250668555578, -14163.585205505517, -15734.465805824497, -12424.977114793912, -11471.31758586378, -10854.76706680859, -15190.24553182668, -13790.400480079708, -20472.00745010465, 0.012750000000000001, -0.0245, 0.98875, 192.0, 0.0, 56.0, 127.5, 32.0, 15.0, 112.0, 0.0, 0.0, 0.0, 1.644586593392497E9, 0.0, 2022-02-12 00:36:33.392
38.0, -14649.668592175078, -13678.999385714458, -8500.770747753471, -14280.216608073308, -14138.998286604678, -10903.516221465616, -14359.162969489453, -11818.306066787967, -14145.65910645236, -15705.185020588044, -12405.754614562347, -11458.085353146238, -10838.226775911662, -15173.079392085005, -13778.375241562753, -20472.76740941613, 0.012750000000000001, -0.0245, 0.98875, 192.0, 0.0, 0.0, 0.0, 0.0, 0.0, 0.0, 0.0, 0.0, 0.0, 1.644586593398662E9, 0.0, 2022-02-12 00:36:33.398
40.0, -14662.230272558962, -13698.087775479291, -8509.264410646489, -14271.611186458014, -14138.528899971117, -10896.877753362389, -14352.32333568613, -11829.05725587097, -14163.451095038785, -15739.1149686712, -12420.372655436118, -11466.109629405693, -10847.8603777719, -15174.95693861925, -13794.11086965929, -20483.540950243587, 0.012750000000000001, -0.0245, 0.98875, 192.0, 0.0, 0.0, 0.0, 0.0, 0.0, 0.0, 0.0, 0.0, 0.0, 1.644586593406007E9, 0.0, 2022-02-12 00:36:33.406
42.0, -14643.678324661056, -13655.105370891735, -8499.653160530706, -14295.9745879143, -14146.888452397401, -10898.263561518617, -14353.977364775821, -11817.456700498666, -14148.721295442736, -15715.086843381745, -12427.547565406272, -11471.138771908138, -10816.255011112096, -15169.212540294237, -13783.2032183651, -20472.05215359356, 0.012750000000000001, -0.0245, 0.98875, 192.0, 0.0, 0.0, 0.0, 0.0, 0.0, 0.0, 0.0, 0.0, 0.0, 1.644586593413822E9, 0.0, 2022-02-12 00:36:33.413
44.0, -14653.311926521294, -13690.354071897755, -8504.838765244338, -14267.073782333588, -14133.633867935405, -10904.20912554373, -14355.296117698685, -11828.051427370481, -14157.03614438011, -15718.238439349943, -12411.253143698352, -11468.165989895582, -10837.980906722654, -15187.473915514222, -13781.370375319764, -20478.221235063225, 0.012750000000000001, -0.0245, 0.98875, 192.0, 0.0, 0.0, 0.0, 0.0, 0.0, 0.0, 0.0, 0.0, 0.0, 1.644586593420804E9, 0.0, 2022-02-12 00:36:33.420
46.0, -14666.678269705568, -13704.32391218232, -8515.58995432734, -14285.290454064663, -14144.139187829398, -10914.803852415545, -14359.945280545388, -11832.030037883525, -14183.590016793016, -15735.248116880432, -12417.489280401383, -11469.417687585079, -10832.19180490873, -15186.646900969376, -13798.938846461637, -20485.753772944663, 0.014375, -0.026250000000000002, 0.986375, 192.0, 0.0, 64.0, 127.5, 16.0, 15.0, 96.0, 0.0, 0.0, 0.0, 1.64458659343527E9, 0.0, 2022-02-12 00:36:33.435
48.0, -14641.823129871265, -13693.170391699123, -8498.78144249695, -14279.300186550641, -14146.061437852555, -10907.047797089554, -14365.108533514564, -11827.358523292367, -14162.80289444958, -15736.633925036662, -12406.201649451454, -11452.944451921518, -10847.793322538535, -15185.775182935618, -13784.969006177069, -20482.44571476528, 0.014375, -0.026250000000000002, 0.986375, 192.0, 0.0, 0.0, 0.0, 0.0, 0.0, 0.0, 0.0, 0.0, 0.0, 1.644586593444054E9, 0.0, 2022-02-12 00:36:33.444
50.0, -14659.23513880195, -13681.860409004737, -8501.86598323178, -14274.002823114733, -14132.9856673462, -10901.213991786719, -14354.64791710948, -11829.504290760076, -14166.110952628966, -15716.20443060451, -12405.531097117793, -11467.026050928362, -10838.360886378394, -15187.786839936596, -13796.703672016105, -20493.129848614913, 0.014375, -0.026250000000000002, 0.986375, 192.0, 0.0, 0.0, 0.0, 0.0, 0.0, 0.0, 0.0, 0.0, 0.0, 1.644586593449939E9, 0.0, 2022-02-12 00:36:33.449
52.0, -14638.403312969604, -13664.448400074054, -8501.418948342676, -14294.9240559249, -14146.977859375223, -10917.150785583352, -14362.9404143024, -11824.989238380103, -14160.590071748504, -15721.904125440613, -12408.861507041634, -11462.46629505948, -10832.95176422021, -15189.552627748566, -13790.355776590799, -20488.57009274603, 0.014375, -0.026250000000000002, 0.986375, 192.0, 0.0, 0.0, 0.0, 0.0, 0.0, 0.0, 0.0, 0.0, 0.0, 1.644586593458172E9, 0.0, 2022-02-12 00:36:33.458
54.0, -14643.119531049673, -13681.905112493649, -8500.055491930902, -14275.858017904524, -14126.056626565056, -10905.706692422234, -14346.400123405472, -11823.20109882368, -14150.241214065698, -15718.908991683602, -12412.370730921119, -11454.84435020022, -10818.490185557626, -15177.303871787057, -13783.940825932124, -20495.677947482818, 0.014375, -0.026250000000000002, 0.986375, 192.0, 0.0, 0.0, 0.0, 0.0, 0.0, 0.0, 0.0, 0.0, 0.0, 1.644586593465967E9, 0.0, 2022-02-12 00:36:33.465
56.0, -14653.714257921489, -13686.800144529361, -8496.903895962703, -14286.519800009704, -14145.055609352066, -10916.122605338407, -14358.17949273342, -11825.637438969308, -14166.647394495893, -15745.2169949075, -12414.851774555656, -11477.039632444339, -10841.512482346592, -15190.424345782323, -13798.335349361343, -20496.124982371926, 0.013187500000000001, -0.024125, 0.9891875, 192.0, 0.0, 48.0, 127.5, 40.0, 15.5, 0.0, 0.0, 0.0, 0.0, 1.644586593472982E9, 0.0, 2022-02-12 00:36:33.472
58.0, -14660.576243469268, -13678.3288333808, -8495.965122695581, -14281.40125052944, -14139.445321493784, -10904.343236010462, -14351.183396718909, -11820.429482511221, -14157.863158924958, -15729.481366810962, -12392.88000975609, -11462.131018892649, -10807.627237752347, -15183.405898023357, -13783.762011976483, -20490.894674169384, 0.013187500000000001, -0.024125, 0.9891875, 192.0, 0.0, 0.0, 0.0, 0.0, 0.0, 0.0, 0.0, 0.0, 0.0, 1.644586593480601E9, 0.0, 2022-02-12 00:36:33.480
60.0, -14658.56458646829, -13684.587321828285, -8505.621076300273, -14282.027099374189, -14143.245118051187, -10905.63963718887, -14359.766466589746, -11829.258421571067, -14173.777600977135, -15729.123738899678, -12409.912039031035, -11468.635376529142, -10834.829310754456, -15183.71882244573, -13800.078785428857, -20502.495229541688, 0.013187500000000001, -0.024125, 0.9891875, 192.0, 0.0, 0.0, 0.0, 0.0, 0.0, 0.0, 0.0, 0.0, 0.0, 1.644586593487554E9, 0.0, 2022-02-12 00:36:33.487
62.0, -14644.99707758392, -13643.616574241707, -8504.101157677313, -14303.775346729202, -14153.66103096736, -10918.983628628688, -14364.616795136548, -11823.648133712786, -14173.017641665656, -15711.890543924635, -12422.563126392739, -11481.08529819075, -10848.888558016844, -15188.904427159361, -13794.379090592754, -20500.505924285168, 0.013187500000000001, -0.024125, 0.9891875, 192.0, 0.0, 0.0, 0.0, 0.0, 0.0, 0.0, 0.0, 0.0, 0.0, 1.644586593495635E9, 0.0, 2022-02-12 00:36:33.495
64.0, -14668.265243561895, -13716.19268848809, -8517.847480517326, -14281.982395885278, -14145.994382619188, -10908.813584901523, -14366.673155626435, -11835.271040829544, -14174.246987610697, -15730.040160422346, -12423.390140937585, -11468.121286406671, -10840.461950357194, -15205.62353201193, -13792.702709758605, -20504.976273176228, 0.013187500000000001, -0.024125, 0.9891875, 192.0, 0.0, 0.0, 0.0, 0.0, 0.0, 0.0, 0.0, 0.0, 0.0, 1.644586593502674E9, 0.0, 2022-02-12 00:36:33.502
66.0, -14683.15150536913, -13710.71651109654, -8523.033085230958, -14303.618884518015, -14158.08667636951, -10922.626962974902, -14370.003565550276, -11838.601450753386, -14191.27901688564, -15768.12753297419, -12433.64959164257, -11476.369080110679, -10850.475531873171, -15203.500116288677, -13811.656989056706, -20508.4407935668, 0.013593750000000002, -0.0230625, 0.99159375, 192.0, 0.0, 56.0, 127.5, 40.0, 15.5, 8.0, 0.0, 0.0, 0.0, 1.64458659351029E9, 0.0, 2022-02-12 00:36:33.510
68.0, -14661.872644647676, -13694.489144621986, -8517.02046597248, -14298.075651893098, -14155.784446690614, -10911.831070402988, -14363.499207913783, -11810.684121928707, -14177.353880089984, -15750.894337999147, -12425.379446194107, -11475.922045221574, -10849.134427205852, -15193.710052217253, -13798.49181157253, -20498.06958413954, 0.013593750000000002, -0.0230625, 0.99159375, 192.0, 0.0, 0.0, 0.0, 0.0, 0.0, 0.0, 0.0, 0.0, 0.0, 1.644586593518293E9, 0.0, 2022-02-12 00:36:33.518
70.0, -14672.467371519491, -13707.274342450422, -8526.430550388164, -14294.789945458167, -14151.045876866088, -10908.567715712514, -14358.648879366981, -11832.320610561444, -14186.071060427555, -15768.015774251911, -12434.45425444296, -11480.258283645902, -10846.318107404484, -15193.553590006066, -13808.170116921678, -20505.311549343056, 0.013593750000000002, -0.0230625, 0.99159375, 192.0, 0.0, 0.0, 0.0, 0.0, 0.0, 0.0, 0.0, 0.0, 0.0, 1.644586593526178E9, 0.0, 2022-02-12 00:36:33.526
72.0, -14676.915368666097, -13691.114031209236, -8516.372265383276, -14313.990093945276, -14160.455961281772, -10924.951544398255, -14376.664385397959, -11824.162223835257, -14189.177952906843, -15744.635849551662, -12434.856585843158, -11480.951187724017, -10845.62520332637, -15202.203715110269, -13805.286741886943, -20501.19882836328, 0.013593750000000002, -0.0230625, 0.99159375, 192.0, 0.0, 0.0, 0.0, 0.0, 0.0, 0.0, 0.0, 0.0, 0.0, 1.644586593532902E9, 0.0, 2022-02-12 00:36:33.532
74.0, -14670.880397663164, -13706.849659305772, -8520.35087589632, -14295.102869880542, -14141.546385472582, -10916.770805927612, -14363.879187569522, -11827.470282014643, -14185.981653449733, -15746.222823407988, -12422.31725720373, -11474.536237065344, -10840.931336990756, -15205.779994223118, -13795.139049904234, -20509.20075287828, 0.013593750000000002, -0.0230625, 0.99159375, 192.0, 0.0, 0.0, 0.0, 0.0, 0.0, 0.0, 0.0, 0.0, 0.0, 1.644586593540875E9, 0.0, 2022-02-12 00:36:33.540
76.0, -14691.6675200066, -13724.842813592293, -8526.966992255091, -14316.202916646353, -14160.187740348309, -10927.857271177445, -14374.116286530054, -11830.19719483819, -14203.326607147052, -15773.35784117673, -12447.887652860602, -11494.31753090829, -10846.76514229359, -15214.541878049598, -13815.613247825295, -20515.235723881215, 0.013796875, -0.021531250000000002, 0.990796875, 192.0, 0.0, 56.0, 127.5, 48.0, 15.0, 120.0, 0.0, 0.0, 0.0, 1.644586593548994E9, 0.0, 2022-02-12 00:36:33.548
78.0, -14709.52656382639, -13734.923450341637, -8521.870794519282, -14316.962875957834, -14164.345164816996, -10927.030256632597, -14371.724649873335, -11820.541241233497, -14197.269284399663, -15773.246082454454, -12439.371638223129, -11487.276731404869, -10843.322973647473, -15204.640055255897, -13802.693939530129, -20511.77120349064, 0.013796875, -0.021531250000000002, 0.990796875, 192.0, 0.0, 0.0, 0.0, 0.0, 0.0, 0.0, 0.0, 0.0, 0.0, 1.644586593562625E9, 0.0, 2022-02-12 00:36:33.562
80.0, -14718.958999986531, -13757.208139563578, -8527.771655055483, -14308.73743399828, -14151.068228610544, -10932.282916579596, -14367.276652726729, -11838.869671686849, -14215.754177064202, -15786.947701805557, -12450.681620917514, -11504.509926379911, -10855.10234297542, -15217.469956573244, -13819.345989149331, -20526.568058320056, 0.013796875, -0.021531250000000002, 0.990796875, 192.0, 0.0, 0.0, 0.0, 0.0, 0.0, 0.0, 0.0, 0.0, 0.0, 1.644586593570502E9, 0.0, 2022-02-12 00:36:33.570
82.0, -14753.715962614533, -13761.745543688005, -8517.512204350496, -14324.115434183532, -14149.950641387779, -10922.202279830251, -14372.819885351646, -11821.882345900816, -14218.212868954286, -15799.688196145082, -12455.911929120057, -11518.815042831307, -10846.362810893395, -15210.384453580911, -13807.052529698913, -20511.413575579354, 0.013796875, -0.021531250000000002, 0.990796875, 192.0, 0.0, 0.0, 0.0, 0.0, 0.0, 0.0, 0.0, 0.0, 0.0, 1.644586593578614E9, 0.0, 2022-02-12 00:36:33.578
84.0, -14770.435067467102, -13787.830029467348, -8524.642410831739, -14310.97260844381, -14138.75241741567, -10903.96325635472, -14366.203768992875, -11820.697703444685, -14225.655999857903, -15785.718355860516, -12458.392972754595, -11533.969525572005, -10837.064485199988, -15188.993834137182, -13797.083651671846, -20513.179363391326, 0.013796875, -0.021531250000000002, 0.990796875, 192.0, 0.0, 0.0, 0.0, 0.0, 0.0, 0.0, 0.0, 0.0, 0.0, 1.644586593585173E9, 0.0, 2022-02-12 00:36:33.585
86.0, -14797.324216046836, -13846.592765640351, -8532.890204535748, -14332.16206218744, -14149.391847776396, -10922.246983319163, -14366.919024815445, -11824.519851746541, -14245.459645445306, -15809.545315449872, -12493.172287127052, -11548.09582806776, -10864.445372157737, -15226.522413077642, -13812.97574197957, -20520.734253017217, 0.0148984375, -0.022765625, 0.9903984375, 192.0, 0.0, 64.0, 127.5, 32.0, 15.0, 120.0, 0.0, 0.0, 0.0, 1.644586593593524E9, 0.0, 2022-02-12 00:36:33.593
88.0, -14812.92573367664, -13859.154446024233, -8521.1108352078, -14327.35643712955, -14142.149882572876, -10929.935983411788, -14363.879187569522, -11815.4897469866, -14235.20019474032, -15820.475318488518, -12489.730118480937, -11531.287316237369, -10855.974061009176, -15219.01222694066, -13797.73185226105, -20515.660407025865, 0.0148984375, -0.022765625, 0.9903984375, 192.0, 0.0, 0.0, 0.0, 0.0, 0.0, 0.0, 0.0, 0.0, 0.0, 1.644586593601042E9, 0.0, 2022-02-12 00:36:33.601
90.0, -14872.381373927758, -13890.357481283841, -8529.090407978345, -14319.108643425543, -14140.629963949916, -10925.73385545419, -14369.131847516519, -11830.130139604824, -14251.516968192695, -15828.253725558965, -12498.46965056296, -11539.825682619296, -10856.219930198185, -15226.142433421903, -13813.109852446301, -20525.36106411947, 0.0148984375, -0.022765625, 0.9903984375, 192.0, 0.0, 0.0, 0.0, 0.0, 0.0, 0.0, 0.0, 0.0, 0.0, 1.644586593608549E9, 0.0, 2022-02-12 00:36:33.608
92.0, -14876.091763507338, -13859.914405335714, -8525.3129631654, -14337.615887834536, -14144.027429107122, -10920.145919340363, -14361.733420101813, -11820.049502855481, -14259.20596828532, -15820.475318488518, -12493.887542949622, -11546.598261189254, -10846.34045914894, -15226.812985755561, -13813.534535590952, -20517.023863437636, 0.0148984375, -0.022765625, 0.9903984375, 192.0, 0.0, 0.0, 0.0, 0.0, 0.0, 0.0, 0.0, 0.0, 0.0, 1.644586593614771E9, 0.0, 2022-02-12 00:36:33.614
94.0, -14855.684620819644, -13872.498437464052, -8532.778445813472, -14330.396274375473, -14144.69798144078, -10914.513279737626, -14368.617757394048, -11823.402264523776, -14261.68701191986, -15831.651190716171, -12487.80786845778, -11559.629328206698, -10847.972136494176, -15211.926723948327, -13803.744471519527, -20520.15310766138, 0.0148984375, -0.022765625, 0.9903984375, 192.0, 0.0, 0.0, 0.0, 0.0, 0.0, 0.0, 0.0, 0.0, 0.0, 1.64458659362303E9, 0.0, 2022-02-12 00:36:33.623
96.0, -14821.709969247577, -13873.83954213137, -8531.817320801892, -14336.274783167219, -14151.828187922025, -10932.34997181296, -14377.08906854261, -11830.86774717185, -14271.00768935772, -15838.446121030585, -12503.029406431844, -11550.71098216903, -10879.10811652042, -15229.092863690003, -13823.056378728912, -20529.160860676868, 0.012, -0.022, 0.992, 192.0, 0.0, 48.0, 127.5, 40.0, 15.5, 0.0, 0.0, 0.0, 0.0, 1.644586593630748E9, 0.0, 2022-02-12 00:36:33.630
98.0, -14814.065672643861, -13854.438227944163, -8523.860099775804, -14331.02212322022, -14147.715466942247, -10934.898070680865, -14372.931644073922, -11820.608296466864, -14244.610279156004, -15792.490934430472, -12493.731080738437, -11530.750874370442, -10861.651404100825, -15221.225049641735, -13803.230381397056, -20521.762433262164, 0.012, -0.022, 0.992, 192.0, 0.0, 0.0, 0.0, 0.0, 0.0, 0.0, 0.0, 0.0, 0.0, 1.644586593638087E9, 0.0, 2022-02-12 00:36:33.638
100.0, -14836.529175821446, -13848.716181363605, -8530.275050434477, -14324.048378950165, -14139.042990093589, -10929.153672355851, -14363.789780591702, -11827.514985503554, -14260.457665974816, -15834.13223435071, -12489.797173714302, -11533.768359871909, -10865.138276235852, -15237.877099260939, -13816.909649003703, -20533.58650607902, 0.012, -0.022, 0.992, 192.0, 0.0, 0.0, 0.0, 0.0, 0.0, 0.0, 0.0, 0.0, 0.0, 1.644586593645392E9, 0.0, 2022-02-12 00:36:33.645
102.0, -14831.477681574546, -13838.300268447432, -8527.88341377776, -14344.567280360137, -14153.75043794518, -10930.360666556438, -14376.776144120235, -11821.189441822702, -14248.991221069244, -15839.541356508895, -12482.018766643854, -11544.56425244382, -10862.299604690028, -15228.288200889612, -13815.188564680644, -20525.40576760838, 0.012, -0.022, 0.992, 192.0, 0.0, 0.0, 0.0, 0.0, 0.0, 0.0, 0.0, 0.0, 0.0, 1.644586593653599E9, 0.0, 2022-02-12 00:36:33.653
104.0, -14803.31448356086, -13823.54811710693, -8526.274088176977, -14322.059073693643, -14137.523071470629, -10909.148861068352, -14367.835446338111, -11814.215697552645, -14240.542261665138, -15822.285809789397, -12472.921606650545, -11531.466130193012, -10853.045982485532, -15214.407767582867, -13807.723082032571, -20525.606933308474, 0.012, -0.022, 0.992, 192.0, 0.0, 0.0, 0.0, 0.0, 0.0, 0.0, 0.0, 0.0, 0.0, 1.644586593661447E9, 0.0, 2022-02-12 00:36:33.661
106.0, -14782.706175173065, -13821.223535683577, -8535.192434214645, -14345.103722227064, -14143.222766306732, -10921.956410641244, -14370.338841717106, -11813.746310919085, -14256.568462439593, -15823.559859223351, -12490.892409192611, -11543.223147776504, -10863.730116335168, -15224.019017698649, -13824.397483396231, -20531.73131128923, 0.01, -0.024, 0.984, 192.0, 0.0, 40.0, 127.5, 32.0, 15.0, 96.0, 0.0, 0.0, 0.0, 1.644586593668648E9, 0.0, 2022-02-12 00:36:33.668
108.0, -14758.745105116977, -13767.668755968662, -8523.100140464323, -14332.318524398628, -14143.692152940292, -10921.487024007682, -14371.545835917692, -11808.024264338526, -14233.970848795278, -15788.199399495054, -12482.778725955335, -11518.837394575763, -10859.840912799944, -15224.220183398747, -13801.755166263005, -20523.01413095166, 0.01, -0.024, 0.984, 192.0, 0.0, 0.0, 0.0, 0.0, 0.0, 0.0, 0.0, 0.0, 0.0, 1.644586593683184E9, 0.0, 2022-02-12 00:36:33.683
110.0, -14775.330099502815, -13798.737680761538, -8534.901861536726, -14321.276762637706, -14143.155711073365, -10925.06330312053, -14377.446696453893, -11821.927049389727, -14235.803691840612, -15810.12646080571, -12491.60766501518, -11531.08615053727, -10857.404572654315, -15238.25707891668, -13811.187602423144, -20536.782805536128, 0.01, -0.024, 0.984, 192.0, 0.0, 0.0, 0.0, 0.0, 0.0, 0.0, 0.0, 0.0, 0.0, 1.644586593690181E9, 0.0, 2022-02-12 00:36:33.690
112.0, -14775.933596603109, -13787.517105044975, -8527.25756493301, -14345.729571071814, -14155.0915426125, -10933.69107648028, -14380.665347655458, -11818.842508654894, -14246.800750112625, -15788.847600084258, -12474.486228762416, -11534.975354072494, -10870.122715249387, -15232.49032884721, -13809.645332055728, -20529.96552347726, 0.01, -0.024, 0.984, 192.0, 0.0, 0.0, 0.0, 0.0, 0.0, 0.0, 0.0, 0.0, 0.0, 1.644586593697799E9, 0.0, 2022-02-12 00:36:33.697
114.0, -14769.652756411168, -13798.11183191679, -8531.035009745958, -14326.998809218267, -14134.304420269063, -10920.123567595909, -14371.724649873335, -11821.502366245077, -14233.479110417262, -15817.904867876157, -12459.667022188547, -11512.198926472536, -10858.589215110447, -15209.088052402503, -13803.655064541706, -20535.35229389099, 0.01, -0.024, 0.984, 192.0, 0.0, 0.0, 0.0, 0.0, 0.0, 0.0, 0.0, 0.0, 0.0, 1.644586593705881E9, 0.0, 2022-02-12 00:36:33.705
116.0, -14756.688744627088, -13770.842703681315, -8532.644335346738, -14349.50701588476, -14153.303403056074, -10928.34900955546, -14392.355310005583, -11818.57428772143, -14247.426598957372, -15819.469489988029, -12478.46483927546, -11516.781034085874, -10870.413287927306, -15230.38926486841, -13824.218669440588, -20541.610782338477, 0.008, -0.026000000000000002, 0.986, 192.0, 0.0, 32.0, 127.5, 24.0, 15.0, 104.0, 0.0, 0.0, 0.0, 1.644586593713742E9, 0.0, 2022-02-12 00:36:33.713
118.0, -14735.409883905637, -13780.833933452837, -8522.83191953086, -14337.548832601171, -14155.60563273497, -10936.999134659665, -14383.593426179103, -11815.109767330858, -14231.176880738365, -15800.962245579034, -12466.931339136523, -11516.021074774395, -10863.8642268019, -15236.603049826987, -13811.142898934235, -20537.185136936325, 0.008, -0.026000000000000002, 0.986, 192.0, 0.0, 0.0, 0.0, 0.0, 0.0, 0.0, 0.0, 0.0, 0.0, 1.64458659372031E9, 0.0, 2022-02-12 00:36:33.720
120.0, -14748.977392790008, -13789.260541112488, -8523.614230586796, -14321.634390548992, -14149.32479254303, -10926.046779876564, -14373.579844663125, -11817.993142365593, -14237.927107563866, -15817.301370775864, -12466.171379825042, -11505.336940924757, -10864.691241346747, -15232.847956758495, -13817.960180993103, -20541.655485827385, 0.008, -0.026000000000000002, 0.986, 192.0, 0.0, 0.0, 0.0, 0.0, 0.0, 0.0, 0.0, 0.0, 0.0, 1.644586593728233E9, 0.0, 2022-02-12 00:36:33.728
122.0, -14720.367159887215, -13741.33840100031, -8515.54525083843, -14340.052227980164, -14161.551196760083, -10926.762035699134, -14385.336862246617, -11811.041749839993, -14229.679313859859, -15800.828135112302, -12465.903158891579, -11513.160051484116, -10854.43179064176, -15225.516584577153, -13815.63559956975, -20534.927610746337, 0.008, -0.026000000000000002, 0.986, 192.0, 0.0, 0.0, 0.0, 0.0, 0.0, 0.0, 0.0, 0.0, 0.0, 1.6445865937352E9, 0.0, 2022-02-12 00:36:33.735
124.0, -14727.273848923905, -13738.47737771003, -8517.668666561683, -14320.36034111504, -14150.665897210349, -10913.105119836942, -14388.354347748083, -11809.566534705942, -14215.508307875194, -15765.065343983812, -12451.665097673547, -11516.535164896866, -10833.331743875951, -15215.72652050573, -13806.761957020994, -20539.01797998166, 0.008, -0.026000000000000002, 0.986, 192.0, 0.0, 0.0, 0.0, 0.0, 0.0, 0.0, 0.0, 0.0, 0.0, 1.644586593743424E9, 0.0, 2022-02-12 00:36:33.743
126.0, -14744.149415987662, -13755.017668606957, -8524.262431176, -14332.40793137645, -14158.556063003072, -10917.955448383744, -14384.040461068209, -11821.725883689629, -14234.283773217652, -15815.312065519342, -12455.0402110863, -11506.633342103165, -10869.362755937906, -15216.061796672559, -13825.380960152264, -20545.07530272905, 0.012, -0.026000000000000002, 0.988, 192.0, 0.0, 48.0, 127.5, 24.0, 15.0, 112.0, 0.0, 0.0, 0.0, 1.644586593750424E9, 0.0, 2022-02-12 00:36:33.750
128.0, -14736.750988572954, -13752.022534849946, -8522.87662301977, -14334.531347099704, -14158.243138580698, -10916.167308827318, -14384.018109323753, -11795.350825232366, -14226.214793469286, -15796.60365541025, -12441.830330113213, -11496.575057098276, -10847.838026027444, -15214.765395494152, -13811.478175101063, -20536.156956691382, 0.012, -0.026000000000000002, 0.988, 192.0, 0.0, 0.0, 0.0, 0.0, 0.0, 0.0, 0.0, 0.0, 0.0, 1.644586593757881E9, 0.0, 2022-02-12 00:36:33.757
130.0, -14727.139738457172, -13752.380162761232, -8535.460655148108, -14332.430283120906, -14162.601728749481, -10920.101215851453, -14399.776089164745, -11827.492633759099, -14232.71915110578, -15804.337358991786, -12447.351210993673, -11495.613932086699, -10859.416229655293, -15236.759512038174, -13833.539346878451, -20552.406674910388, 0.012, -0.026000000000000002, 0.988, 192.0, 0.0, 0.0, 0.0, 0.0, 0.0, 0.0, 0.0, 0.0, 0.0, 1.644586593767283E9, 0.0, 2022-02-12 00:36:33.767
132.0, -14713.393415617158, -13719.187822245101, -8531.325582423877, -14358.291251455696, -14181.958339447778, -10942.74353298468, -14408.917952646965, -11822.664656956751, -14240.318744220585, -15792.89326583067, -12466.8419321587, -11515.03759801836, -10871.575578638982, -15235.619573070953, -13838.054399258424, -20552.965468521772, 0.012, -0.026000000000000002, 0.988, 192.0, 0.0, 0.0, 0.0, 0.0, 0.0, 0.0, 0.0, 0.0, 0.0, 1.644586593773386E9, 0.0, 2022-02-12 00:36:33.773
134.0, -14707.246685891949, -13741.383104489221, -8538.835768560859, -14332.631448821003, -14172.123571887443, -10937.826149204511, -14412.181307337441, -11827.962020392659, -14225.365427179984, -15790.546332662861, -12463.869150146145, -11527.28635397987, -10868.96042453771, -15243.3979801414, -13830.343047421342, -20560.766227336673, 0.012, -0.026000000000000002, 0.988, 192.0, 0.0, 0.0, 0.0, 0.0, 0.0, 0.0, 0.0, 0.0, 0.0, 1.644586593780695E9, 0.0, 2022-02-12 00:36:33.780
136.0, -14756.77815160491, -13787.606512022796, -8551.911539067214, -14344.008486748755, -14183.612368537471, -10941.290669595084, -14407.599199724104, -11835.271040829544, -14244.565575667093, -15815.982617853, -12478.196618341997, -11509.13673748216, -10889.456974203227, -15242.5486138521, -13850.88430057577, -20562.330849448546, 0.012, -0.024, 0.986, 192.0, 0.0, 48.0, 127.5, 32.0, 15.0, 104.0, 0.0, 0.0, 0.0, 1.644586593788817E9, 0.0, 2022-02-12 00:36:33.788
138.0, -14742.853014809254, -13756.53758722992, -8544.73662909706, -14342.510919870248, -14178.538522546116, -10926.918497910321, -14401.832449654634, -11810.594714950887, -14250.734657136758, -15820.631780699705, -12453.073257574231, -11497.335016409757, -10865.764125080601, -15240.536956851121, -13831.125358477278, -20553.032523755137, 0.012, -0.024, 0.986, 192.0, 0.0, 0.0, 0.0, 0.0, 0.0, 0.0, 0.0, 0.0, 0.0, 1.644586593795973E9, 0.0, 2022-02-12 00:36:33.795
140.0, -14723.898735511153, -13726.362732215255, -8549.631661132773, -14334.240774421785, -14171.341260831507, -10926.315000810027, -14399.239647297818, -11820.362427277854, -14250.309973992107, -15806.84075437078, -12458.303565776774, -11513.42827241758, -10878.906950820321, -15238.592355083509, -13839.775483581483, -20558.575756380054, 0.012, -0.024, 0.986, 192.0, 0.0, 0.0, 0.0, 0.0, 0.0, 0.0, 0.0, 0.0, 0.0, 1.644586593810274E9, 0.0, 2022-02-12 00:36:33.810
142.0, -14734.784035060888, -13739.1926335326, -8536.31002143741, -14354.98319327631, -14167.13913287391, -10936.842672448478, -14387.102650058587, -11797.742461889084, -14243.760912866703, -15804.471469458518, -12469.94882463799, -11529.677990636586, -10855.527026120071, -15252.964526768272, -13830.298343932433, -20550.88675628743, 0.012, -0.024, 0.986, 192.0, 0.0, 0.0, 0.0, 0.0, 0.0, 0.0, 0.0, 0.0, 0.0, 1.644586593818254E9, 0.0, 2022-02-12 00:36:33.818
144.0, -14727.206793690539, -13755.084723840324, -8540.199224972634, -14335.134844199998, -14152.476388511228, -10922.850480419456, -14379.726574388334, -11803.62097068083, -14234.976677295766, -15811.60167593976, -12455.353135508674, -11506.745100825441, -10865.451200658226, -15228.601125311987, -13819.435396127154, -20551.73612257673, 0.012, -0.024, 0.986, 192.0, 0.0, 0.0, 0.0, 0.0, 0.0, 0.0, 0.0, 0.0, 0.0, 1.644586593825284E9, 0.0, 2022-02-12 00:36:33.825
146.0, -14714.935685984576, -13746.38989524721, -8540.69096335065, -14343.002658248266, -14161.171217104342, -10927.678457221802, -14390.298949515696, -11806.90667711576, -14251.29345074814, -15830.377141282219, -12477.973100897445, -11524.693551623053, -10888.294683491551, -15239.866404517461, -13835.439245157153, -20560.140378491924, 0.012, -0.024, 0.988, 192.0, 0.0, 48.0, 127.5, 32.0, 15.0, 112.0, 0.0, 0.0, 0.0, 1.64458659383273E9, 0.0, 2022-02-12 00:36:33.832
148.0, -14727.564421601823, -13731.57068867334, -8534.320716180888, -14345.729571071814, -14168.547292774594, -10924.63861997588, -14394.881057129034, -11802.503383458064, -14229.05346501511, -15808.964170094034, -12459.309394277263, -11498.251437932426, -10873.564883895504, -15229.539898579109, -13826.632657841761, -20552.4513783993, 0.012, -0.024, 0.988, 192.0, 0.0, 0.0, 0.0, 0.0, 0.0, 0.0, 0.0, 0.0, 0.0, 1.644586593841206E9, 0.0, 2022-02-12 00:36:33.841
150.0, -14737.82387230681, -13752.983659861526, -8544.915443052703, -14341.281573925207, -14157.70669671377, -10931.433550290294, -14386.722670402845, -11815.221526053134, -14251.785189126158, -15822.17405106712, -12462.550397223282, -11507.147432225638, -10873.7660495956, -15249.58941335552, -13833.271125944988, -20566.331811706044, 0.012, -0.024, 0.988, 192.0, 0.0, 0.0, 0.0, 0.0, 0.0, 0.0, 0.0, 0.0, 0.0, 1.644586593849221E9, 0.0, 2022-02-12 00:36:33.849
152.0, -14728.950229758053, -13738.76795038795, -8534.477178392075, -14357.777161333224, -14168.927272430334, -10933.467559035726, -14402.838278155123, -11816.272058042534, -14253.595680427037, -15828.23137381451, -12466.059621102766, -11520.245554476447, -10863.48424714616, -15248.784750555129, -13831.326524177377, -20563.06845701557, 0.012, -0.024, 0.988, 192.0, 0.0, 0.0, 0.0, 0.0, 0.0, 0.0, 0.0, 0.0, 0.0, 1.644586593858404E9, 0.0, 2022-02-12 00:36:33.858
154.0, -14729.218450691516, -13734.05173230788, -8536.421780159686, -14341.281573925207, -14165.865083439958, -10922.850480419456, -14403.128850833042, -11814.506270230564, -14239.447026186828, -15804.627931669706, -12464.405592013072, -11514.299990451336, -10851.011973740098, -15236.848919015994, -13824.822166540882, -20560.67682035885, 0.012, -0.024, 0.988, 192.0, 0.0, 0.0, 0.0, 0.0, 0.0, 0.0, 0.0, 0.0, 0.0, 1.644586593863315E9, 0.0, 2022-02-12 00:36:33.863
156.0, -14726.133909956683, -13756.783456418927, -8539.908652294715, -14356.704277599369, -14168.346127074496, -10926.762035699134, -14389.382527993028, -11814.930953375215, -14256.277889761674, -15836.300353562876, -12481.459973032472, -11528.962734814017, -10892.29564574905, -15253.456265146287, -13839.2166899701, -20566.465922172778, 0.012, -0.026000000000000002, 0.984, 192.0, 0.0, 48.0, 127.5, 24.0, 15.0, 96.0, 0.0, 0.0, 0.0, 1.644586593871909E9, 0.0, 2022-02-12 00:36:33.871
158.0, -14734.672276338611, -13726.452139193076, -8526.430550388164, -14346.087198983098, -14165.887435184412, -10918.44718676176, -14383.682833156925, -11791.819249608428, -14252.276927504174, -15828.611353470249, -12466.685469947513, -11509.22614445998, -10869.116886748898, -15240.11227370647, -13824.77746305197, -20552.563137121575, 0.012, -0.026000000000000002, 0.984, 192.0, 0.0, 0.0, 0.0, 0.0, 0.0, 0.0, 0.0, 0.0, 0.0, 1.644586593879181E9, 0.0, 2022-02-12 00:36:33.879
160.0, -14730.313686169826, -13746.278136524932, -8536.980573771069, -14331.335047642595, -14150.37532453243, -10908.701826179245, -14383.235798267819, -11804.269171270034, -14245.973735567777, -15810.595847439272, -12456.448370986984, -11504.062891490805, -10867.462857659204, -15228.467014845255, -13832.220593955588, -20558.285183702134, 0.012, -0.026000000000000002, 0.984, 192.0, 0.0, 0.0, 0.0, 0.0, 0.0, 0.0, 0.0, 0.0, 0.0, 1.644586593885333E9, 0.0, 2022-02-12 00:36:33.885
162.0, -14744.127064243206, -13752.380162761232, -8533.270184191488, -14358.17949273342, -14158.08667636951, -10924.929192653799, -14388.17553379244, -11795.283769999001, -14255.674392661382, -15846.42569380113, -12460.851664644679, -11520.08909226526, -10866.166456480796, -15242.995648741204, -13831.371227666286, -20553.323096433058, 0.012, -0.026000000000000002, 0.984, 192.0, 0.0, 0.0, 0.0, 0.0, 0.0, 0.0, 0.0, 0.0, 0.0, 1.644586593893214E9, 0.0, 2022-02-12 00:36:33.893
164.0, -14730.53720361438, -13767.400535035198, -8535.415951659197, -14349.685829840402, -14148.27426055363, -10912.658084947836, -14381.134734289019, -11798.18949677819, -14248.857110602512, -15828.097263347778, -12457.722420420936, -11523.486557422466, -10844.507616103605, -15245.454340631288, -13815.948523992125, -20557.63698311293, 0.012, -0.024, 0.986, 192.0, 0.0, 48.0, 127.5, 40.0, 15.0, 112.0, 0.0, 0.0, 0.0, 1.644586593901244E9, 0.0, 2022-02-12 00:36:33.901
166.0, -14735.096959483262, -13770.82035193686, -8539.036934260957, -14368.058963782665, -14158.265490325153, -10931.813529946034, -14391.483591971826, -11810.348845761877, -14258.40130548493, -15865.804656243881, -12479.649481731592, -11552.476769981, -10878.750488609134, -15264.699192607308, -13835.439245157153, -20570.77980885265, 0.012, -0.024, 0.986, 192.0, 0.0, 0.0, 0.0, 0.0, 0.0, 0.0, 0.0, 0.0, 0.0, 1.644586593907792E9, 0.0, 2022-02-12 00:36:33.907
168.0, -14734.225241449505, -13785.550151532907, -8530.073884734378, -14373.333975474117, -14160.455961281772, -10932.417027046327, -14392.46706872786, -11799.083566556403, -14234.619049384482, -15850.404304314174, -12465.32201353574, -11534.237746505469, -10858.209235454708, -15263.4027914289, -13817.937829248647, -20566.622384383965, 0.012, -0.024, 0.986, 192.0, 0.0, 0.0, 0.0, 0.0, 0.0, 0.0, 0.0, 0.0, 0.0, 1.644586593915734E9, 0.0, 2022-02-12 00:36:33.915
170.0, -14735.052255994351, -13768.205197835588, -8543.50728315202, -14365.443809681394, -14153.459865267261, -10931.21003284574, -14393.405841994983, -11809.119499816836, -14244.185596011353, -15881.942615740612, -12473.390993284107, -11549.5263397129, -10857.739848821146, -15259.960622782783, -13827.683189831161, -20574.669012387876, 0.012, -0.024, 0.986, 192.0, 0.0, 0.0, 0.0, 0.0, 0.0, 0.0, 0.0, 0.0, 0.0, 1.644586593930774E9, 0.0, 2022-02-12 00:36:33.930
172.0, -14759.281546983904, -13774.977776405547, -8538.366381927299, -14385.158048290974, -14164.792199706102, -10953.137094156396, -14403.039443855221, -11813.031055096515, -14259.317727007596, -15878.925130239146, -12489.618359758659, -11555.516607226922, -10877.007052541621, -15273.103448522503, -13834.969858523591, -20579.094657790025, 0.012, -0.024, 0.986, 192.0, 0.0, 0.0, 0.0, 0.0, 0.0, 0.0, 0.0, 0.0, 0.0, 1.644586593937537E9, 0.0, 2022-02-12 00:36:33.937
174.0, -14765.316517986837, -13804.437375597641, -8539.461617405608, -14365.8908445705, -14164.300461328086, -10935.389809058883, -14389.784859393223, -11807.823098638428, -14250.824064114579, -15871.213778402065, -12469.568844982248, -11543.312554754324, -10854.208273197208, -15277.394983457922, -13822.430529884165, -20580.905149090904, 0.011, -0.025, 0.987, 192.0, 0.0, 40.0, 127.5, 24.0, 15.0, 112.0, 0.0, 0.0, 0.0, 1.644586593945418E9, 0.0, 2022-02-12 00:36:33.945
176.0, -14762.142570274184, -13806.49373608753, -8545.429533175175, -14382.051155811687, -14181.488952814218, -10948.890262709889, -14405.56519097867, -11821.278848800523, -14268.951328867834, -15902.081537494843, -12484.902141678589, -11552.879101381195, -10881.58916015496, -15288.369689985479, -13841.854195815826, -20586.58249218255, 0.011, -0.025, 0.987, 192.0, 0.0, 0.0, 0.0, 0.0, 0.0, 0.0, 0.0, 0.0, 0.0, 1.644586593953494E9, 0.0, 2022-02-12 00:36:33.953
178.0, -14737.890927540175, -13773.033174637936, -8543.149655240733, -14383.928702345933, -14173.352917832484, -10945.515149297136, -14397.630321697035, -11808.113671316347, -14259.183616540864, -15879.372165128252, -12476.207313085475, -11552.521473469911, -10867.328747192472, -15277.350279969012, -13829.538384620952, -20580.748686879717, 0.011, -0.025, 0.987, 192.0, 0.0, 0.0, 0.0, 0.0, 0.0, 0.0, 0.0, 0.0, 0.0, 1.644586593960628E9, 0.0, 2022-02-12 00:36:33.960
180.0, -14738.58383161829, -13783.784363720939, -8549.676364621684, -14366.69550737089, -14157.885510669412, -10936.373285814916, -14382.051155811687, -11803.285694514001, -14263.184578798364, -15867.592795800305, -12482.46580153296, -11552.543825214367, -10874.48130541817, -15263.49219840672, -13835.126320734778, -20585.3084427486, 0.011, -0.025, 0.987, 192.0, 0.0, 0.0, 0.0, 0.0, 0.0, 0.0, 0.0, 0.0, 0.0, 1.644586593968073E9, 0.0, 2022-02-12 00:36:33.968
182.0, -14741.48955839748, -13781.1021543863, -8538.88047204977, -14389.047251826198, -14169.866045697458, -10941.73770448419, -14397.116231574564, -11808.068967827436, -14262.49167472025, -15897.275912436953, -12496.100365650698, -11560.411639262635, -10872.290834461552, -15278.154942769403, -13834.589878867851, -20576.97124206677, 0.011, -0.025, 0.987, 192.0, 0.0, 0.0, 0.0, 0.0, 0.0, 0.0, 0.0, 0.0, 0.0, 1.644586593976024E9, 0.0, 2022-02-12 00:36:33.976
184.0, -14751.816064335831, -13783.91847418767, -8538.54519588294, -14374.093934785598, -14166.580339262528, -10933.601669502457, -14396.51273447427, -11811.265267284545, -14259.697706663335, -15877.561673827371, -12480.878827676634, -11559.718735184519, -10873.095497261942, -15268.633099631441, -13829.560736365407, -20586.02369857117, 0.0095, -0.0235, 0.9875, 192.0, 0.0, 32.0, 127.5, 40.0, 15.0, 112.0, 0.0, 0.0, 0.0, 1.644586593983191E9, 0.0, 2022-02-12 00:36:33.983
186.0, -14745.602279377257, -13786.846552711315, -8552.917367567703, -14381.984100578322, -14172.503551543183, -10942.609422517948, -14390.23189428233, -11814.081587085913, -14267.342003267051, -15884.915397753168, -12489.66306324757, -11560.657508451643, -10890.753375381635, -15286.134515539947, -13846.704524362627, -20590.829323629063, 0.0095, -0.0235, 0.9875, 192.0, 0.0, 0.0, 0.0, 0.0, 0.0, 0.0, 0.0, 0.0, 0.0, 1.644586593990529E9, 0.0, 2022-02-12 00:36:33.990
188.0, -14746.183424733093, -13786.891256200226, -8546.524768653486, -14391.75181290529, -14172.145923631899, -10942.229442862206, -14397.22799029684, -11804.827964881417, -14259.116561307499, -15889.631615833237, -12483.382223055629, -11540.04920006385, -10852.420133640782, -15286.805067873607, -13832.68998058915, -20589.577625939564, 0.0095, -0.0235, 0.9875, 192.0, 0.0, 0.0, 0.0, 0.0, 0.0, 0.0, 0.0, 0.0, 0.0, 1.644586593998453E9, 0.0, 2022-02-12 00:36:33.998
190.0, -14764.265985997437, -13788.21000912309, -8549.408143688219, -14380.17360927744, -14166.960318918267, -10936.239175348184, -14392.735289661323, -11817.233183054112, -14283.9717011418, -15904.920209040667, -12480.968234654456, -11556.455380494044, -10892.16153528232, -15285.799239373118, -13849.36438195281, -20598.652434188418, 0.0095, -0.0235, 0.9875, 192.0, 0.0, 0.0, 0.0, 0.0, 0.0, 0.0, 0.0, 0.0, 0.0, 1.644586594005045E9, 0.0, 2022-02-12 00:36:34.005
192.0, -14735.275773438905, -13770.350965303298, -8545.630698875273, -14401.720690932358, -14174.336394588518, -10952.757114500657, -14400.781917665234, -11810.594714950887, -14281.513009251716, -15893.833743790836, -12491.652368504092, -11566.29014805438, -10885.72423287919, -15285.3075009951, -13851.68896337616, -20593.466829474786, 0.0095, -0.0235, 0.9875, 192.0, 0.0, 0.0, 0.0, 0.0, 0.0, 0.0, 0.0, 0.0, 0.0, 1.644586594013049E9, 0.0, 2022-02-12 00:36:34.013
194.0, -14734.6275728497, -13778.285834584933, -8542.814379073903, -14385.158048290974, -14160.500664770683, -10940.530710283603, -14384.755716890779, -11805.319703259434, -14268.43723874536, -15866.676374277637, -12481.258807332375, -11576.10256387026, -10869.9662530382, -15279.317233481079, -13839.417855670197, -20593.466829474786, 0.01175, -0.02275, 0.98675, 192.0, 0.0, 56.0, 127.5, 40.0, 15.0, 104.0, 0.0, 0.0, 0.0, 1.644586594021081E9, 0.0, 2022-02-12 00:36:34.021
196.0, -14739.924936285608, -13796.413099338186, -8547.865873320803, -14389.22606578184, -14169.195493363797, -10950.790160988588, -14395.193981551407, -11811.57819170692, -14279.523703995194, -15913.10094751131, -12502.492964564915, -11557.036525849882, -10890.172230025797, -15286.805067873607, -13852.918309321203, -20598.60773069951, 0.01175, -0.02275, 0.98675, 192.0, 0.0, 0.0, 0.0, 0.0, 0.0, 0.0, 0.0, 0.0, 0.0, 1.64458659402766E9, 0.0, 2022-02-12 00:36:34.027
198.0, -14756.733448116, -13790.266369612977, -8534.96891677009, -14396.400975751994, -14171.989461420711, -10951.416009833338, -14395.171629806951, -11805.252648026068, -14265.307994521618, -15901.232171205542, -12489.081917891732, -11537.724618640497, -10877.29762521954, -15276.433858446344, -13843.351762694332, -20588.951777094815, 0.01175, -0.02275, 0.98675, 192.0, 0.0, 0.0, 0.0, 0.0, 0.0, 0.0, 0.0, 0.0, 0.0, 1.644586594035615E9, 0.0, 2022-02-12 00:36:34.035
200.0, -14765.093000542283, -13797.68714877214, -8551.397448944743, -14388.644920426002, -14169.240196852708, -10950.007849932654, -14392.645882683502, -11813.858069641361, -14282.518837752204, -15899.712252582582, -12489.28308359183, -11561.439819507577, -10871.620282127891, -15293.711756910296, -13854.482931433075, -20602.40752725691, 0.01175, -0.02275, 0.98675, 192.0, 0.0, 0.0, 0.0, 0.0, 0.0, 0.0, 0.0, 0.0, 0.0, 1.644586594043648E9, 0.0, 2022-02-12 00:36:34.043
202.0, -14765.24946275347, -13811.344064634332, -8545.138960497256, -14405.609894467581, -14183.813534237568, -10955.26050987965, -14396.8480106411, -11804.693854414685, -14296.063994892122, -15917.52659291346, -12500.257790119385, -11569.039412622382, -10871.687337361258, -15296.55042845612, -13855.578166911384, -20592.684518418853, 0.01175, -0.02275, 0.98675, 192.0, 0.0, 0.0, 0.0, 0.0, 0.0, 0.0, 0.0, 0.0, 0.0, 1.644586594057796E9, 0.0, 2022-02-12 00:36:34.057
204.0, -14765.16005577565, -13804.124451175268, -8551.486855922563, -14389.002548337288, -14169.083734641521, -10943.771713229622, -14384.196923279396, -11793.428575209211, -14289.291416322163, -15921.751072615514, -12491.674720248548, -11563.965566631028, -10890.194581770253, -15292.057727820604, -13841.943602793646, -20590.002309084215, 0.013875, -0.024375, 0.987375, 192.0, 0.0, 64.0, 127.5, 24.0, 15.0, 112.0, 0.0, 0.0, 0.0, 1.644586594065297E9, 0.0, 2022-02-12 00:36:34.065
206.0, -14743.791788076376, -13769.188674591624, -8556.136018769266, -14401.586580465626, -14179.074964413043, -10941.290669595084, -14399.329054275639, -11811.846412640383, -14297.695672237358, -15909.971703287567, -12505.890429722123, -11590.698252999575, -10893.72615739419, -15299.523210468677, -13856.829864600883, -20596.104335320513, 0.013875, -0.024375, 0.987375, 192.0, 0.0, 0.0, 0.0, 0.0, 0.0, 0.0, 0.0, 0.0, 0.0, 1.644586594074848E9, 0.0, 2022-02-12 00:36:34.074
208.0, -14745.87050031072, -13793.216799881078, -8550.816303588905, -14396.89271413001, -14177.219769623252, -10945.537501041592, -14396.46803098536, -11798.837697367395, -14281.356547040528, -15884.04367971941, -12507.320941367263, -11561.216302063025, -10886.998282313143, -15273.818704345073, -13848.64912613024, -20593.824457386072, 0.013875, -0.024375, 0.987375, 192.0, 0.0, 0.0, 0.0, 0.0, 0.0, 0.0, 0.0, 0.0, 0.0, 1.644586594081786E9, 0.0, 2022-02-12 00:36:34.081
210.0, -14770.904454100664, -13805.242038398033, -8556.784219358471, -14380.531237188727, -14172.704717243281, -10944.419913818827, -14401.072490343153, -11809.968866106137, -14291.861866934523, -15911.603380632805, -12499.251961618897, -11545.99476408896, -10871.8661513169, -15286.514495195688, -13861.836655358871, -20599.434745244354, 0.013875, -0.024375, 0.987375, 192.0, 0.0, 0.0, 0.0, 0.0, 0.0, 0.0, 0.0, 0.0, 0.0, 1.64458659408812E9, 0.0, 2022-02-12 00:36:34.088
212.0, -14751.793712591376, -13790.1546108907, -8547.68705936516, -14404.894638645012, -14188.753269762192, -10958.255643636661, -14405.431080511938, -11811.377026006821, -14297.11452688152, -15897.968816515067, -12493.552266782794, -11563.920863142117, -10903.762090654624, -15309.581495473563, -13863.535387937474, -20597.043108587637, 0.013875, -0.024375, 0.987375, 192.0, 0.0, 0.0, 0.0, 0.0, 0.0, 0.0, 0.0, 0.0, 0.0, 1.644586594095916E9, 0.0, 2022-02-12 00:36:34.095
214.0, -14767.976375577018, -13800.525820317964, -8555.867797835803, -14386.901484358488, -14177.219769623252, -10953.137094156396, -14385.962711091366, -11791.416918208233, -14284.418736030906, -15917.86186908029, -12489.059566147276, -11558.914072384128, -10884.137259022864, -15295.07521332207, -13843.821149327892, -20596.104335320513, 0.0139375, -0.0241875, 0.9886874999999999, 192.0, 0.0, 56.0, 127.5, 32.0, 15.0, 120.0, 0.0, 0.0, 0.0, 1.644586594104044E9, 0.0, 2022-02-12 00:36:34.104
216.0, -14744.328229943303, -13788.075898656358, -8556.605405402828, -14398.814964153167, -14172.771772476646, -10938.362591071438, -14387.952016347888, -11797.72011014463, -14306.122279897008, -15933.597497176826, -12503.878772721146, -11579.231808094002, -10891.356872481927, -15294.516419710688, -13860.294384991454, -20599.881780133463, 0.0139375, -0.0241875, 0.9886874999999999, 192.0, 0.0, 0.0, 0.0, 0.0, 0.0, 0.0, 0.0, 0.0, 0.0, 1.644586594112407E9, 0.0, 2022-02-12 00:36:34.112
218.0, -14757.87338708322, -13774.597796749807, -8549.54225415495, -14399.329054275639, -14174.403449821884, -10947.057419664552, -14388.689623914914, -11792.445098453176, -14272.549959725138, -15892.626749590248, -12482.354042810684, -11555.449551993555, -10863.931282035266, -15262.218148972768, -13845.944565051148, -20592.34924225202, 0.0139375, -0.0241875, 0.9886874999999999, 192.0, 0.0, 0.0, 0.0, 0.0, 0.0, 0.0, 0.0, 0.0, 0.0, 1.644586594118691E9, 0.0, 2022-02-12 00:36:34.118
220.0, -14780.180428049616, -13810.315884389387, -8560.874588593791, -14388.80138263719, -14176.057478911576, -10946.811550475544, -14389.94132160441, -11812.248744040578, -14310.25735262124, -15909.591723631827, -12497.508525551382, -11549.392229246168, -10865.384145424861, -15295.991634844737, -13858.059210545924, -20609.001291871227, 0.0139375, -0.0241875, 0.9886874999999999, 192.0, 0.0, 0.0, 0.0, 0.0, 0.0, 0.0, 0.0, 0.0, 0.0, 1.644586594128811E9, 0.0, 2022-02-12 00:36:34.128
222.0, -14770.703288400566, -13785.192523621623, -8550.190454744155, -14404.872286900556, -14178.940853946311, -10955.349916857473, -14392.08708907212, -11790.835772852395, -14317.78989050268, -15904.67433985166, -12503.923476210055, -11551.828569391797, -10894.06143356102, -15303.45711749281, -13859.914405335714, -20604.866219146996, 0.0139375, -0.0241875, 0.9886874999999999, 192.0, 0.0, 0.0, 0.0, 0.0, 0.0, 0.0, 0.0, 0.0, 0.0, 1.644586594134842E9, 0.0, 2022-02-12 00:36:34.134
224.0, -14762.142570274184, -13785.036061410436, -8559.131152526279, -14379.726574388334, -14167.407353807374, -10930.472425278715, -14385.94035934691, -11792.959188575649, -14315.867640479522, -15903.847325306813, -12501.397729086606, -11547.581737945287, -10877.521142664093, -15287.162695784891, -13843.374114438786, -20598.875951632974, 0.01196875, -0.02309375, 0.98834375, 192.0, 0.0, 40.0, 127.5, 40.0, 15.0, 112.0, 0.0, 0.0, 0.0, 1.644586594140804E9, 0.0, 2022-02-12 00:36:34.140
226.0, -14766.791733120888, -13786.712442244583, -8568.78710613097, -14392.645882683502, -14173.442324810307, -10928.326657811005, -14394.255208284285, -11801.47520321312, -14335.64893432247, -15906.14955498571, -12524.822357275767, -11566.088982354282, -10896.989512084665, -15279.339585225534, -13863.64714665975, -20606.11791683649, 0.01196875, -0.02309375, 0.98834375, 192.0, 0.0, 0.0, 0.0, 0.0, 0.0, 0.0, 0.0, 0.0, 0.0, 1.644586594148437E9, 0.0, 2022-02-12 00:36:34.148
228.0, -14755.057067281852, -13761.633784965728, -8556.02426004699, -14397.406804252483, -14169.106086385977, -10929.086617122486, -14390.388356493517, -11789.606426907352, -14307.955122942343, -15871.727868524536, -12507.902086723101, -11556.522435727411, -10892.697977149246, -15263.961585040282, -13848.202091241134, -20595.545541709133, 0.01196875, -0.02309375, 0.98834375, 192.0, 0.0, 0.0, 0.0, 0.0, 0.0, 0.0, 0.0, 0.0, 0.0, 1.644586594156903E9, 0.0, 2022-02-12 00:36:34.156
230.0, -14783.309672273359, -13806.806660509905, -8568.45182996414, -14387.102650058587, -14164.456923539272, -10930.293611323073, -14389.449583226393, -11793.920313587227, -14317.275800380206, -15891.106830967288, -12505.175173899554, -11568.212398077536, -10887.087689290964, -15283.318195738579, -13855.175835511189, -20605.089736591548, 0.01196875, -0.02309375, 0.98834375, 192.0, 0.0, 0.0, 0.0, 0.0, 0.0, 0.0, 0.0, 0.0, 0.0, 1.644586594163113E9, 0.0, 2022-02-12 00:36:34.163
232.0, -14790.01519560995, -13791.383956835743, -8563.26622525051, -14416.76341495078, -14193.33537737553, -10944.196396374273, -14406.079281101142, -11798.725938645119, -14339.158158201953, -15923.472156938573, -12522.743645041424, -11560.858674151741, -10912.233401803185, -15277.640852646931, -13866.530521694485, -20607.347262781535, 0.01196875, -0.02309375, 0.98834375, 192.0, 0.0, 0.0, 0.0, 0.0, 0.0, 0.0, 0.0, 0.0, 0.0, 1.644586594178017E9, 0.0, 2022-02-12 00:36:34.178
234.0, -14763.193102263584, -13785.751317233005, -8563.31092873942, -14391.885923372021, -14181.444249325306, -10941.827111462011, -14397.742080419313, -11805.1855927927, -14326.194146417874, -15894.86192403578, -12503.834069232234, -11563.183255575092, -10883.8690380894, -15294.963454599794, -13857.07573378989, -20614.388062284954, 0.012, -0.02, 0.988, 192.0, 0.0, 48.0, 127.5, 48.0, 15.0, 112.0, 0.0, 0.0, 0.0, 1.644586594185769E9, 0.0, 2022-02-12 00:36:34.185
236.0, -14782.817933895343, -13784.92430268816, -8568.0718503084, -14397.31739727466, -14183.031223181633, -10950.186663888297, -14403.687644444424, -11813.299276029979, -14340.02987623571, -15896.605360103293, -12527.124586954664, -11559.986956117984, -10907.450128489749, -15309.514440240198, -13877.41582124422, -20623.306408322624, 0.012, -0.02, 0.988, 192.0, 0.0, 0.0, 0.0, 0.0, 0.0, 0.0, 0.0, 0.0, 0.0, 1.644586594192495E9, 0.0, 2022-02-12 00:36:34.192
238.0, -14780.336890260804, -13790.556942290896, -8554.750210613038, -14396.065699585164, -14179.209074879775, -10935.680381736802, -14395.529257718237, -11792.646264153274, -14323.914268483433, -15913.324464955864, -12506.76214775588, -11560.277528795903, -10878.01288104211, -15293.331777254556, -13860.450847202641, -20609.60478897152, 0.012, -0.02, 0.988, 192.0, 0.0, 0.0, 0.0, 0.0, 0.0, 0.0, 0.0, 0.0, 0.0, 1.644586594200422E9, 0.0, 2022-02-12 00:36:34.200
240.0, -14779.085192571307, -13793.797945236916, -8570.84346662086, -14384.666309912958, -14176.728031245237, -10928.706637466747, -14398.65850194198, -11807.800746893972, -14331.178585431408, -15901.9027235392, -12505.085766921731, -11555.784828160386, -10882.617340399902, -15281.306538737601, -13868.005736828534, -20612.17523958388, 0.012, -0.02, 0.988, 192.0, 0.0, 0.0, 0.0, 0.0, 0.0, 0.0, 0.0, 0.0, 0.0, 1.644586594208694E9, 0.0, 2022-02-12 00:36:34.208
242.0, -14773.676070413123, -13788.187657378634, -8557.41006820322, -14404.46995550036, -14171.430667809329, -10941.670649250824, -14391.640054183013, -11799.731767145608, -14328.116396441032, -15914.06207252289, -12517.155708927598, -11554.95781361554, -10908.165384312319, -15279.607806158998, -13876.03001308799, -20613.404585528922, 0.012, -0.02, 0.988, 192.0, 0.0, 0.0, 0.0, 0.0, 0.0, 0.0, 0.0, 0.0, 0.0, 1.644586594215657E9, 0.0, 2022-02-12 00:36:34.215
244.0, -14751.413732935636, -13781.996224164513, -8556.203074002633, -14389.784859393223, -14163.85342643898, -10927.030256632597, -14389.650748926491, -11796.870743855328, -14321.947314971367, -15888.849304777303, -12498.80492672979, -11537.501101195945, -10887.937055580265, -15274.131628767447, -13860.249681502544, -20614.902152407427, 0.01, -0.026000000000000002, 0.986, 192.0, 0.0, 40.0, 127.5, 24.0, 15.0, 104.0, 0.0, 0.0, 0.0, 1.644586594223317E9, 0.0, 2022-02-12 00:36:34.223
246.0, -14759.996802806474, -13781.191561364123, -8564.808495617926, -14408.627379969048, -14167.13913287391, -10925.242117076174, -14385.694490157903, -11801.028168324014, -14341.169815202931, -15901.053357249899, -12515.94871472701, -11559.04818285086, -10895.44724171725, -15266.800256586106, -13874.84537063186, -20626.189783357357, 0.01, -0.026000000000000002, 0.986, 192.0, 0.0, 0.0, 0.0, 0.0, 0.0, 0.0, 0.0, 0.0, 0.0, 1.644586594230157E9, 0.0, 2022-02-12 00:36:34.230
248.0, -14761.002631306963, -13762.416096021665, -8554.92902456868, -14406.90629564599, -14171.497723042694, -10931.679419479302, -14388.846086126101, -11794.344996731877, -14324.651876050459, -15895.420717647163, -12502.291798864819, -11544.13956929917, -10884.025500300588, -15286.380384728955, -13863.177760026188, -20619.37250129849, 0.01, -0.026000000000000002, 0.986, 192.0, 0.0, 0.0, 0.0, 0.0, 0.0, 0.0, 0.0, 0.0, 0.0, 1.644586594240621E9, 0.0, 2022-02-12 00:36:34.240
250.0, -14775.665375669645, -13773.860189182782, -8572.296330010455, -14395.015167595766, -14162.37821130493, -10927.745512455167, -14392.17649604994, -11813.902773130272, -14335.26895466673, -15898.90758978219, -12515.278162393352, -11557.550615972355, -10891.066299804008, -15286.626253917964, -13874.063059575923, -20625.65334149043, 0.01, -0.026000000000000002, 0.986, 192.0, 0.0, 0.0, 0.0, 0.0, 0.0, 0.0, 0.0, 0.0, 0.0, 1.644586594245278E9, 0.0, 2022-02-12 00:36:34.245
252.0, -14768.937500588598, -13785.751317233005, -8570.284673009477, -14414.841164927622, -14186.808667994579, -10952.26537612264, -14404.51465898927, -11813.05340684097, -14344.768446060234, -15902.640331106226, -12521.111967696186, -11575.342604558778, -10910.646427946858, -15301.087832580548, -13890.603350472851, -20628.782585714172, 0.01, -0.026000000000000002, 0.986, 192.0, 0.0, 0.0, 0.0, 0.0, 0.0, 0.0, 0.0, 0.0, 0.0, 1.644586594252877E9, 0.0, 2022-02-12 00:36:34.252
254.0, -14748.552709645357, -13782.800886964904, -8566.395469474253, -14396.8480106411, -14183.9476447043, -10938.02731490461, -14404.46995550036, -11812.516964974042, -14330.619791820025, -15892.067955978866, -12513.28885713683, -11550.062781579827, -10890.552209681537, -15283.809934116594, -13878.309891022433, -20629.78841421466, 0.01, -0.03, 0.988, 192.0, 0.0, 40.0, 127.5, 8.0, 15.0, 112.0, 0.0, 0.0, 0.0, 1.644586594260715E9, 0.0, 2022-02-12 00:36:34.260
0.0, -14768.44576221058, -13791.562770791385, -8575.537332956474, -14420.026769641254, -14191.614293052471, -10947.54915804257, -14414.237667827329, -11819.24484005509, -14348.881167040012, -15916.34195045733, -12522.34131364123, -11549.638098435176, -10924.191585086774, -15285.888646350939, -13896.168934842222, -20638.41618757441, 0.01, -0.03, 0.988, 192.0, 0.0, 0.0, 0.0, 0.0, 0.0, 0.0, 0.0, 0.0, 0.0, 1.64458659426799E9, 0.0, 2022-02-12 00:36:34.267
2.0, -14798.531210247424, -13792.38978533623, -8567.31189099692, -14428.833356956644, -14191.90486573039, -10957.518036069636, -14406.19103982342, -11809.298313772479, -14341.192166947385, -15918.443014436129, -12517.8039095168, -11559.092886339771, -10914.625038459902, -15292.214190031791, -13884.32251028091, -20634.258763105725, 0.01, -0.03, 0.988, 192.0, 0.0, 0.0, 0.0, 0.0, 0.0, 0.0, 0.0, 0.0, 0.0, 1.644586594275371E9, 0.0, 2022-02-12 00:36:34.275
4.0, -14796.698367202089, -13812.953390235114, -8574.486800967074, -14403.218257810862, -14179.499647557694, -10949.7843324881, -14391.818868138656, -11810.348845761877, -14342.868547781534, -15916.38665394624, -12521.961333985488, -11560.612804962731, -10900.141108052863, -15304.708815182306, -13886.736498682083, -20638.75146374124, 0.01, -0.03, 0.988, 192.0, 0.0, 0.0, 0.0, 0.0, 0.0, 0.0, 0.0, 0.0, 0.0, 1.644586594290359E9, 0.0, 2022-02-12 00:36:34.290
6.0, -14774.59249193579, -13785.326634088355, -8568.720050897606, -14418.529202762747, -14194.587075065027, -10950.20901563275, -14407.889772402023, -11807.95720910516, -14354.513806642748, -15937.687866412149, -12519.323828139763, -11565.843113165274, -10918.626000717402, -15289.397870230421, -13893.017338874024, -20633.051768905138, 0.01, -0.03, 0.988, 192.0, 0.0, 0.0, 0.0, 0.0, 0.0, 0.0, 0.0, 0.0, 0.0, 1.644586594296541E9, 0.0, 2022-02-12 00:36:34.296
8.0, -14772.06674481234, -13784.521971287963, -8567.624815419294, -14400.80426940969, -14177.465638812262, -10945.112817896941, -14399.574923464648, -11803.688025914196, -14343.248527437274, -15917.973627802567, -12505.689264022025, -11552.186197303081, -10915.697922193756, -15289.822553375072, -13878.645167189261, -20631.24127760426, 0.012, -0.028, 0.99, 192.0, 0.0, 48.0, 127.5, 16.0, 15.0, 120.0, 0.0, 0.0, 0.0, 1.644586594308991E9, 0.0, 2022-02-12 00:36:34.308
10.0, -14775.128933802716, -13788.902913201204, -8578.755984158039, -14417.299856817706, -14177.778563234635, -10948.577338287514, -14400.491344987315, -11812.516964974042, -14359.989984034299, -15925.752034873014, -12520.62022931817, -11578.33773831579, -10915.854384404944, -15294.225847032769, -13894.291388307976, -20636.89626895145, 0.012, -0.028, 0.99, 192.0, 0.0, 0.0, 0.0, 0.0, 0.0, 0.0, 0.0, 0.0, 0.0, 1.644586594315264E9, 0.0, 2022-02-12 00:36:34.315
12.0, -14754.610032392746, -13774.620148494263, -8567.356594485831, -14422.910144675989, -14181.533656303127, -10949.560815043547, -14406.168688078964, -11805.47616547062, -14348.277669939718, -15922.354569715808, -12519.56969732877, -11568.167694588625, -10902.689206920768, -15294.605826688508, -13879.002795100547, -20631.196574115347, 0.012, -0.028, 0.99, 192.0, 0.0, 0.0, 0.0, 0.0, 0.0, 0.0, 0.0, 0.0, 0.0, 1.644586594321595E9, 0.0, 2022-02-12 00:36:34.321
14.0, -14774.883064613708, -13806.78430876545, -8574.442097478164, -14404.291141544718, -14172.101220142988, -10942.654126006857, -14398.56909496416, -11813.656903941262, -14347.249489694774, -15912.832726577846, -12518.183889172542, -11559.4281625066, -10903.806794143533, -15301.356053514011, -13884.143696325267, -20636.98567592927, 0.012, -0.028, 0.99, 192.0, 0.0, 0.0, 0.0, 0.0, 0.0, 0.0, 0.0, 0.0, 0.0, 1.64458659432829E9, 0.0, 2022-02-12 00:36:34.328
16.0, -14791.535114232913, -13800.592875551329, -8578.621873691305, -14427.805176711701, -14184.752307504692, -10949.359649343449, -14410.057891614188, -11805.118537559336, -14357.575995633126, -15938.336067001352, -12526.521089854372, -11566.178389332103, -10903.940904610266, -15299.813783146596, -13889.21754231662, -20632.69414099385, 0.012, -0.028, 0.99, 192.0, 0.0, 0.0, 0.0, 0.0, 0.0, 0.0, 0.0, 0.0, 0.0, 1.644586594335475E9, 0.0, 2022-02-12 00:36:34.335
18.0, -14774.167808791139, -13798.49181157253, -8581.46054523713, -14414.61764748307, -14189.937912218324, -10953.02533543412, -14415.109385861086, -11812.405206251766, -14351.69748684138, -15915.827860334857, -12520.553174084804, -11550.33100251329, -10917.26254430563, -15295.008158088704, -13881.573245712907, -20635.197536372845, 0.012, -0.024, 0.99, 192.0, 0.0, 48.0, 127.5, 32.0, 15.0, 120.0, 0.0, 0.0, 0.0, 1.644586594342924E9, 0.0, 2022-02-12 00:36:34.342
20.0, -14796.83247766882, -13792.434488825142, -8584.813306905426, -14422.060778386687, -14192.106031430487, -10939.077846894008, -14424.13949062103, -11831.046561127492, -14367.41076319346, -15938.1125495568, -12526.834014276745, -11584.417412807634, -10931.679419479302, -15298.696195923829, -13908.75296697056, -20651.335495869578, 0.012, -0.024, 0.99, 192.0, 0.0, 0.0, 0.0, 0.0, 0.0, 0.0, 0.0, 0.0, 0.0, 1.644586594350998E9, 0.0, 2022-02-12 00:36:34.350
22.0, -14773.005518079462, -13787.315939344877, -8574.866780622815, -14425.324133077162, -14186.071060427555, -10955.17110290183, -14424.944153421422, -11804.179764292212, -14347.674172839425, -15927.696636640625, -12516.038121704833, -11570.738145200987, -10921.9787623857, -15298.830306390562, -13894.403147030253, -20636.829213718083, 0.012, -0.024, 0.99, 192.0, 0.0, 0.0, 0.0, 0.0, 0.0, 0.0, 0.0, 0.0, 0.0, 1.644586594357956E9, 0.0, 2022-02-12 00:36:34.357
24.0, -14792.473887500035, -13826.967934008591, -8583.919237127213, -14409.297932302707, -14178.583226035027, -10950.656050521857, -14396.982121107832, -11811.645246940285, -14356.346649688085, -15938.023142578977, -12523.48125260845, -11556.85771189424, -10914.312114037528, -15304.641759948941, -13893.531428996495, -20646.84279523406, 0.012, -0.024, 0.99, 192.0, 0.0, 0.0, 0.0, 0.0, 0.0, 0.0, 0.0, 0.0, 0.0, 1.644586594366816E9, 0.0, 2022-02-12 00:36:34.366
26.0, -14776.693555914588, -13809.041834955435, -8581.41584174822, -14433.28135410325, -14192.597769808504, -10954.344088356984, -14408.001531124299, -11798.413014222744, -14363.678021869424, -15950.696581685137, -12537.76401731539, -11566.267796309925, -10913.798023915057, -15308.977998373271, -13896.0795278644, -20639.556126541633, 0.012, -0.024, 0.99, 192.0, 0.0, 0.0, 0.0, 0.0, 0.0, 0.0, 0.0, 0.0, 0.0, 1.644586594373341E9, 0.0, 2022-02-12 00:36:34.373
28.0, -14778.146419304183, -13797.597741794318, -8578.800687646948, -14422.038426642232, -14189.289711629119, -10942.296498095573, -14418.976237651854, -11807.018435838037, -14345.729571071814, -15920.991113304033, -12523.950639242012, -11564.881988153695, -10932.797006702067, -15292.325948754067, -13888.345824282864, -20641.70189400934, 0.012, -0.024, 0.99, 192.0, 0.0, 48.0, 127.5, 32.0, 15.0, 120.0, 0.0, 0.0, 0.0, 1.644586594381389E9, 0.0, 2022-02-12 00:36:34.381
30.0, -14797.12305034674, -13818.027236226468, -8586.914370884226, -14436.678819260458, -14195.168220420865, -10945.06811440803, -14419.937362663433, -11815.266229542045, -14380.397126721995, -15936.883203611756, -12531.684342823548, -11587.501953542465, -10935.434512547794, -15306.228733805268, -13907.568324514428, -20648.742693512762, 0.012, -0.024, 0.99, 192.0, 0.0, 0.0, 0.0, 0.0, 0.0, 0.0, 0.0, 0.0, 0.0, 1.644586594388508E9, 0.0, 2022-02-12 00:36:34.388
32.0, -14785.656605441167, -13796.681320271651, -8581.818173148415, -14441.573851296169, -14195.883476243434, -10949.203187132262, -14419.378569052049, -11801.47520321312, -14370.31648997265, -15942.269974025487, -12537.987534759945, -11572.950967902061, -10921.554079241048, -15297.198629045324, -13888.815210916426, -20640.89723120895, 0.012, -0.024, 0.99, 192.0, 0.0, 0.0, 0.0, 0.0, 0.0, 0.0, 0.0, 0.0, 0.0, 1.644586594395984E9, 0.0, 2022-02-12 00:36:34.395
34.0, -14793.435012511614, -13791.138087646734, -8593.1281558428, -14426.687589488934, -14191.770755263658, -10943.771713229622, -14426.262906344284, -11823.022284868037, -14367.164894004452, -15932.546965187428, -12540.915613283589, -11573.129781857704, -10933.914593924832, -15317.158736843914, -13899.387586043786, -20651.89428948096, 0.012, -0.024, 0.99, 192.0, 0.0, 0.0, 0.0, 0.0, 0.0, 0.0, 0.0, 0.0, 0.0, 1.644586594402996E9, 0.0, 2022-02-12 00:36:34.402
36.0, -14791.937445633108, -13806.58314306535, -8588.50134474055, -14447.854691488112, -14193.894170986912, -10958.859140736955, -14426.866403444577, -11813.43338649671, -14369.51182717226, -15941.375904247274, -12543.53076738486, -11594.34158734579, -10926.06913162102, -15316.711701954808, -13904.014397146035, -20651.469606336308, 0.012, -0.024, 0.99, 192.0, 0.0, 0.0, 0.0, 0.0, 0.0, 0.0, 0.0, 0.0, 0.0, 1.644586594410528E9, 0.0, 2022-02-12 00:36:34.410
38.0, -14800.140535848206, -13827.97376250908, -8591.228257564098, -14426.262906344284, -14181.287787114119, -10949.940794699287, -14410.884906159034, -11806.392586993288, -14363.342745702595, -15942.20291879212, -12526.67755206556, -11556.276566538403, -10916.25671580514, -15304.619408204486, -13883.160219569234, -20647.111016167524, 0.01, -0.026000000000000002, 0.992, 192.0, 0.0, 40.0, 127.5, 24.0, 15.5, 0.0, 0.0, 0.0, 0.0, 1.644586594425617E9, 0.0, 2022-02-12 00:36:34.425
40.0, -14792.138611333206, -13818.071939715379, -8594.759833188038, -14431.604973269103, -14186.13811566092, -10946.386867330893, -14411.689568959424, -11810.86293588435, -14386.99089133631, -15953.155273575221, -12544.938927285544, -11577.801296448863, -10935.948602670265, -15312.420167019389, -13901.622760489317, -20654.487091837775, 0.01, -0.026000000000000002, 0.992, 192.0, 0.0, 0.0, 0.0, 0.0, 0.0, 0.0, 0.0, 0.0, 0.0, 1.644586594432618E9, 0.0, 2022-02-12 00:36:34.432
42.0, -14802.375710293736, -13798.022424938968, -8598.000836134057, -14443.160825152496, -14202.499592602206, -10951.393658088882, -14435.42712157096, -11800.37996773481, -14374.451562696882, -15938.91721235719, -12536.802892303813, -11580.349395316767, -10937.580280015503, -15307.145155327935, -13893.866705163326, -20647.245126634258, 0.01, -0.026000000000000002, 0.992, 192.0, 0.0, 0.0, 0.0, 0.0, 0.0, 0.0, 0.0, 0.0, 0.0, 1.644586594440214E9, 0.0, 2022-02-12 00:36:34.440
44.0, -14797.033643368917, -13813.534535590952, -8606.785071704993, -14424.653580743503, -14187.278054628141, -10942.899995195867, -14427.805176711701, -11811.712302173652, -14380.754754633279, -15948.39435200624, -12541.116778983687, -11577.086040626293, -10924.906840909343, -15298.02564359017, -13905.623722746817, -20655.89525173846, 0.01, -0.026000000000000002, 0.992, 192.0, 0.0, 0.0, 0.0, 0.0, 0.0, 0.0, 0.0, 0.0, 0.0, 1.644586594448143E9, 0.0, 2022-02-12 00:36:34.448
46.0, -14792.943274133597, -13789.34994809031, -8599.587809990384, -14451.542729323237, -14199.549162334104, -10952.377134844915, -14436.723522749367, -11813.612200452353, -14383.347556990095, -15956.239814310053, -12546.838825564246, -11598.208439136559, -10947.92913769831, -15316.242315321246, -13909.1329466263, -20655.247051149257, 0.012, -0.029, 0.989, 192.0, 0.0, 56.0, 127.5, 0.0, 15.0, 104.0, 0.0, 0.0, 0.0, 1.644586594455316E9, 0.0, 2022-02-12 00:36:34.455
48.0, -14788.383518264714, -13818.429567626665, -8594.26809481002, -14426.844051700122, -14185.288749371619, -10945.872777208422, -14430.129758135052, -11807.107842815858, -14365.957899803865, -15933.530441943461, -12531.393770145629, -11571.319290556823, -10921.755244941145, -15308.374501272978, -13892.659710962738, -20656.2752313942, 0.012, -0.029, 0.989, 192.0, 0.0, 0.0, 0.0, 0.0, 0.0, 0.0, 0.0, 0.0, 0.0, 1.644586594462741E9, 0.0, 2022-02-12 00:36:34.462
50.0, -14787.869428142241, -13828.30903867591, -8597.08441461139, -14430.375627324061, -14186.495743572206, -10954.813474990544, -14418.842127185122, -11806.660807926752, -14383.28050175673, -15956.843311410346, -12540.423874905573, -11579.678842983109, -10929.935983411788, -15322.74667295774, -13907.478917536608, -20662.913699497425, 0.012, -0.029, 0.989, 192.0, 0.0, 0.0, 0.0, 0.0, 0.0, 0.0, 0.0, 0.0, 0.0, 1.644586594472358E9, 0.0, 2022-02-12 00:36:34.472
52.0, -14792.317425288848, -13811.142898934235, -8587.026129606502, -14435.717694248879, -14188.865028484468, -10962.703640783267, -14419.244458585317, -11790.880476341305, -14378.9442633324, -15960.956032390122, -12536.892299281633, -11573.95679640255, -10932.417027046327, -15320.265629323201, -13893.330263296399, -20648.742693512762, 0.012, -0.029, 0.989, 192.0, 0.0, 0.0, 0.0, 0.0, 0.0, 0.0, 0.0, 0.0, 0.0, 1.644586594479182E9, 0.0, 2022-02-12 00:36:34.479
54.0, -14809.863544686265, -13825.537422363452, -8598.134946600789, -14425.659409243992, -14183.880589470935, -10956.914538969344, -14425.391188310527, -11806.124366059825, -14385.269807013252, -15965.225215581086, -12541.072075494776, -11580.639967994686, -10926.963201399232, -15314.476527509276, -13902.717995967627, -20661.304373896644, 0.012, -0.029, 0.989, 192.0, 0.0, 0.0, 0.0, 0.0, 0.0, 0.0, 0.0, 0.0, 0.0, 1.644586594486964E9, 0.0, 2022-02-12 00:36:34.486
56.0, -14808.075405129839, -13812.104023945813, -8591.563533730929, -14455.521339836281, -14204.868877514467, -10965.989347218198, -14441.059761173698, -11800.871706112828, -14392.869400128056, -15953.758770675513, -12546.592956375236, -11600.555372304365, -10936.283878837095, -15322.120824112992, -13912.195135616677, -20660.79028377417, 0.012, -0.0315, 0.9875, 192.0, 0.0, 48.0, 127.0, 120.0, 15.0, 104.0, 0.0, 0.0, 0.0, 1.644586594492564E9, 0.0, 2022-02-12 00:36:34.492
58.0, -14807.650721985188, -13835.819224812893, -8590.98238837509, -14443.8090257417, -14196.889304743923, -10952.69005926729, -14431.694380246923, -11806.392586993288, -14378.27371099874, -15968.220349338097, -12533.852462035711, -11586.563180275343, -10927.052608377053, -15309.492088495743, -13896.593617986873, -20659.404475617943, 0.012, -0.0315, 0.9875, 192.0, 0.0, 0.0, 0.0, 0.0, 0.0, 0.0, 0.0, 0.0, 0.0, 1.64458659450054E9, 0.0, 2022-02-12 00:36:34.500
60.0, -14805.437899284114, -13834.388713167753, -8609.109653128346, -14451.565081067693, -14201.292598401618, -10948.68909700979, -14446.781807754256, -11812.114633573847, -14399.530219975737, -15981.363175077819, -12561.903901327123, -11603.639913039198, -10942.095332395475, -15338.41524582091, -13912.061025149946, -20669.03807747818, 0.012, -0.0315, 0.9875, 192.0, 0.0, 0.0, 0.0, 0.0, 0.0, 0.0, 0.0, 0.0, 0.0, 1.644586594508413E9, 0.0, 2022-02-12 00:36:34.508
62.0, -14805.102623117284, -13822.251715928522, -8602.649998980762, -14461.444552116938, -14206.366444392974, -10961.228425649218, -14449.911051977999, -11801.072871812925, -14393.85287688409, -15961.671288212692, -12555.310136712807, -11592.128764644714, -10930.941811912277, -15319.617428733996, -13904.349673312865, -20659.56093782913, 0.012, -0.0315, 0.9875, 192.0, 0.0, 0.0, 0.0, 0.0, 0.0, 0.0, 0.0, 0.0, 0.0, 1.64458659451517E9, 0.0, 2022-02-12 00:36:34.515
64.0, -14784.091983329296, -13832.578221866874, -8617.80448172146, -14448.793464755234, -14198.431575111339, -10966.481085596215, -14424.787691210235, -11806.079662570914, -14393.539952461715, -15958.9667271336, -12559.176988503576, -11600.443613582089, -10921.911707152332, -15333.27434459619, -13909.37881581531, -20672.2790804242, 0.012, -0.0315, 0.9875, 192.0, 0.0, 0.0, 0.0, 0.0, 0.0, 0.0, 0.0, 0.0, 0.0, 1.644586594523339E9, 0.0, 2022-02-12 00:36:34.523
66.0, -14841.111283434784, -13827.2138031976, -8610.741330473582, -14470.586415599158, -14217.519964876172, -10974.617120577946, -14444.725447264367, -11808.38189224981, -14415.04233062772, -15990.415631582217, -12565.681346140069, -11616.268648656447, -10958.8367889925, -15342.885594711972, -13916.79959497447, -20673.016687991225, 0.01, -0.02975, 0.98675, 192.0, 0.0, 32.0, 127.5, 16.0, 15.0, 104.0, 0.0, 0.0, 0.0, 1.644586594531729E9, 0.0, 2022-02-12 00:36:34.531
68.0, -14825.867393716264, -13825.716236319095, -8603.722882714615, -14453.62144155758, -14211.23912468423, -10971.376117631928, -14443.317287363683, -11803.129232302814, -14399.664330442469, -15980.469105299606, -12543.798988318324, -11596.710872258052, -10955.573434302025, -15326.725283470785, -13911.837507705392, -20673.419019391422, 0.01, -0.02975, 0.98675, 192.0, 0.0, 0.0, 0.0, 0.0, 0.0, 0.0, 0.0, 0.0, 0.0, 1.644586594538258E9, 0.0, 2022-02-12 00:36:34.538
70.0, -14827.700236761599, -13858.08156229038, -8607.008589149546, -14458.069438704186, -14206.0535199706, -10969.967957731242, -14434.62245877057, -11816.406168509266, -14419.825603941155, -15995.400070595751, -12557.321793713785, -11614.324046888834, -10948.107951653952, -15353.681487283886, -13927.237859635099, -20682.382068918, 0.01, -0.02975, 0.98675, 192.0, 0.0, 0.0, 0.0, 0.0, 0.0, 0.0, 0.0, 0.0, 0.0, 1.644586594552679E9, 0.0, 2022-02-12 00:36:34.552
72.0, -14814.35624532178, -13849.498492419541, -8600.236010579589, -14470.362898154604, -14217.47526138726, -10970.035012964609, -14442.512624563293, -11799.731767145608, -14408.605028224592, -15981.743154733558, -12563.334412972263, -11589.625369265721, -10944.174044629819, -15342.75148424524, -13913.268019350531, -20675.453028136853, 0.01, -0.02975, 0.98675, 192.0, 0.0, 0.0, 0.0, 0.0, 0.0, 0.0, 0.0, 0.0, 0.0, 1.644586594560804E9, 0.0, 2022-02-12 00:36:34.560
74.0, -14814.490355788514, -13841.78714058246, -8605.980408904601, -14454.694325291435, -14202.745461791214, -10959.50734132616, -14432.275525602761, -11807.487822471598, -14401.13954557652, -15997.255265385542, -12552.896148311633, -11606.612695051754, -10946.54332954208, -15332.55908877362, -13913.51388853954, -20681.510350884244, 0.01, -0.02975, 0.98675, 192.0, 0.0, 0.0, 0.0, 0.0, 0.0, 0.0, 0.0, 0.0, 0.0, 1.64458659456729E9, 0.0, 2022-02-12 00:36:34.567
76.0, -14813.17160286565, -13813.78040477996, -8610.674275240217, -14479.504761636827, -14221.543278878127, -10976.762888045656, -14446.066551931686, -11809.052444583469, -14413.388301538027, -15985.297082101952, -12557.925290814077, -11609.496070086489, -10956.64631803588, -15334.123710885491, -13925.1367956563, -20680.303356683657, 0.008, -0.028874999999999998, 0.988375, 192.0, 0.0, 24.0, 127.5, 16.0, 15.0, 120.0, 0.0, 0.0, 0.0, 1.644586594575549E9, 0.0, 2022-02-12 00:36:34.575
78.0, -14809.46121328607, -13833.271125944988, -8610.003722906557, -14461.533959094759, -14209.026301983155, -10967.844542007988, -14446.938269965443, -11807.219601538134, -14405.922818889954, -15989.901541459745, -12553.991383789944, -11593.91690420114, -10940.68717249479, -15333.743731229752, -13917.09016765239, -20683.589063118587, 0.008, -0.028874999999999998, 0.988375, 192.0, 0.0, 0.0, 0.0, 0.0, 0.0, 0.0, 0.0, 0.0, 0.0, 1.644586594583649E9, 0.0, 2022-02-12 00:36:34.583
80.0, -14810.020006897452, -13820.865907772293, -8614.94345843118, -14459.119970693586, -14214.413072396885, -10970.772620531634, -14450.447493844928, -11815.780319664516, -14422.016074897776, -15985.25237861304, -12561.613328649204, -11601.672959527132, -10956.534559313603, -15336.515347542208, -13935.686819039205, -20689.62403412152, 0.008, -0.028874999999999998, 0.988375, 192.0, 0.0, 0.0, 0.0, 0.0, 0.0, 0.0, 0.0, 0.0, 0.0, 1.644586594590629E9, 0.0, 2022-02-12 00:36:34.590
82.0, -14825.532117549434, -13860.495550691552, -8602.158260602744, -14483.081040749676, -14237.256555230208, -10991.671501597346, -14474.565026112203, -11821.77058717854, -14408.47091775786, -15991.26499787152, -12553.834921578757, -11598.230790881014, -10963.463600094748, -15347.870033725505, -13926.969638701636, -20687.970005031828, 0.008, -0.028874999999999998, 0.988375, 192.0, 0.0, 0.0, 0.0, 0.0, 0.0, 0.0, 0.0, 0.0, 0.0, 1.644586594598227E9, 0.0, 2022-02-12 00:36:34.598
84.0, -14834.830443242841, -13866.329355994387, -8616.865708454336, -14475.906130779522, -14226.81829056958, -10986.12826897243, -14473.29097667825, -11834.086398373414, -14418.37274055156, -16020.389320896784, -12570.464619453505, -11622.929468504128, -10964.067097195042, -15357.637746052475, -13935.083321938911, -20704.309130228656, 0.008, -0.028874999999999998, 0.988375, 192.0, 0.0, 0.0, 0.0, 0.0, 0.0, 0.0, 0.0, 0.0, 0.0, 1.644586594605154E9, 0.0, 2022-02-12 00:36:34.605
86.0, -14820.391216324713, -13850.191396497656, -8611.277772340509, -14500.805974102734, -14226.125386491465, -10996.722995844246, -14460.550482338725, -11819.825985410927, -14432.633153514047, -16036.504928649061, -12578.220674779497, -11662.335593978834, -10971.063193209553, -15361.124618187503, -13940.313630141454, -20703.348005217078, 0.01, -0.0294375, 0.9911875, 192.0, 0.0, 48.0, 127.5, 8.0, 15.5, 8.0, 0.0, 0.0, 0.0, 1.64458659461318E9, 0.0, 2022-02-12 00:36:34.613
88.0, -14818.670132001655, -13832.421759655686, -8606.98623740509, -14478.320119180695, -14217.072929987065, -10983.468411382248, -14453.777903768767, -11809.924162617226, -14407.442737512916, -16000.853896242847, -12567.402430463128, -11616.693331801098, -10952.667707522834, -15353.61443205052, -13923.840394477893, -20693.803810334663, 0.01, -0.0294375, 0.9911875, 192.0, 0.0, 0.0, 0.0, 0.0, 0.0, 0.0, 0.0, 0.0, 0.0, 1.644586594620175E9, 0.0, 2022-02-12 00:36:34.620
90.0, -14829.041341428918, -13856.271070989498, -8617.066874154434, -14486.098526251142, -14212.826098540558, -10988.966940518254, -14458.784694526756, -11821.323552289434, -14408.359159035583, -16012.230934170597, -12566.038974051355, -11625.857547027774, -10964.961166973253, -15364.410324622433, -13937.966696973646, -20703.727984872818, 0.01, -0.0294375, 0.9911875, 192.0, 0.0, 0.0, 0.0, 0.0, 0.0, 0.0, 0.0, 0.0, 0.0, 1.644586594627598E9, 0.0, 2022-02-12 00:36:34.627
92.0, -14817.373730823247, -13860.584957669373, -8609.109653128346, -14494.189857743962, -14214.144851463421, -11005.462527926271, -14468.932386509465, -11818.686046443707, -14399.28435078673, -16015.06960571642, -12558.0146977919, -11608.557296819365, -10965.274091395628, -15367.383106634989, -13926.254382879066, -20699.14587725948, 0.01, -0.0294375, 0.9911875, 192.0, 0.0, 0.0, 0.0, 0.0, 0.0, 0.0, 0.0, 0.0, 0.0, 1.644586594635854E9, 0.0, 2022-02-12 00:36:34.635
94.0, -14835.925678721153, -13864.876492604792, -8610.249592095566, -14470.094677221141, -14209.294522916618, -10997.862934811466, -14456.795389270233, -11818.95426737717, -14404.179382822442, -16027.966562267133, -12550.929194799566, -11607.618523552243, -10957.808608747555, -15374.580368349598, -13933.384589360308, -20710.254694253767, 0.01, -0.0294375, 0.9911875, 192.0, 0.0, 0.0, 0.0, 0.0, 0.0, 0.0, 0.0, 0.0, 0.0, 1.644586594643618E9, 0.0, 2022-02-12 00:36:34.643
96.0, -14815.227963355537, -13856.963975067614, -8605.354560059854, -14493.072270521197, -14218.458738143294, -10994.577228376536, -14470.00527024332, -11820.00479936657, -14420.093824874619, -16049.692457877693, -12564.273186239385, -11617.766215534952, -10960.379059359915, -15361.906929243438, -13934.099845182878, -20702.588045905595, 0.011, -0.02971875, 0.99159375, 192.0, 0.0, 48.0, 127.5, 8.0, 15.5, 0.0, 0.0, 0.0, 0.0, 1.644586594650431E9, 0.0, 2022-02-12 00:36:34.650
98.0, -14803.023910882941, -13836.623887613285, -8605.220449593122, -14488.020776274298, -14210.09918571701, -10994.800745821089, -14456.43776135895, -11808.806575394461, -14393.383490250528, -16022.937419764688, -12551.19741573303, -11616.358055634268, -10949.359649343449, -15351.200443649346, -13920.085301409401, -20702.789211605694, 0.011, -0.02971875, 0.99159375, 192.0, 0.0, 0.0, 0.0, 0.0, 0.0, 0.0, 0.0, 0.0, 0.0, 1.644586594658676E9, 0.0, 2022-02-12 00:36:34.658
100.0, -14826.873222216753, -13834.053437000925, -8609.757853717549, -14487.86431406311, -14211.90967701789, -10983.379004404427, -14471.994575499843, -11823.692837201696, -14415.04233062772, -16019.495251118571, -12561.412162949106, -11636.87695704424, -10965.184684417807, -15367.047830468158, -13936.111502183856, -20710.81348786515, 0.011, -0.02971875, 0.99159375, 192.0, 0.0, 0.0, 0.0, 0.0, 0.0, 0.0, 0.0, 0.0, 0.0, 1.644586594673073E9, 0.0, 2022-02-12 00:36:34.673
102.0, -14805.370844050747, -13809.466518100086, -8600.504231513052, -14501.431822947483, -14212.043787484621, -10989.346920173994, -14454.962546224899, -11810.102976572869, -14398.926722875443, -16012.40974812624, -12546.861177308701, -11600.86829672674, -10944.196396374273, -15335.442463808355, -13924.578002044917, -20701.71632787184, 0.011, -0.02971875, 0.99159375, 192.0, 0.0, 0.0, 0.0, 0.0, 0.0, 0.0, 0.0, 0.0, 0.0, 1.644586594680028E9, 0.0, 2022-02-12 00:36:34.680
104.0, -14796.07251835734, -13836.154500979723, -8610.450757795663, -14474.676784834479, -14207.707549060291, -10983.98250150472, -14449.598127555624, -11813.05340684097, -14396.825658896645, -16007.73823353508, -12557.411200691606, -11613.519384088444, -10956.378097102415, -15356.542510574165, -13924.779167745015, -20709.04770005318, 0.011, -0.02971875, 0.99159375, 192.0, 0.0, 0.0, 0.0, 0.0, 0.0, 0.0, 0.0, 0.0, 0.0, 1.644586594688194E9, 0.0, 2022-02-12 00:36:34.688
106.0, -14822.291114603415, -13858.774466368493, -8604.952228659658, -14494.994520544353, -14228.33820919254, -10997.661769111368, -14472.665127833501, -11817.300238287478, -14410.37081603656, -16017.863573773335, -12563.177950761075, -11611.217154409547, -10971.487876354204, -15370.311185158633, -13942.079417953422, -20712.95925533286, 0.0115, -0.029859375, 0.990796875, 192.0, 0.0, 48.0, 127.5, 8.0, 15.0, 120.0, 0.0, 0.0, 0.0, 1.644586594696076E9, 0.0, 2022-02-12 00:36:34.696
108.0, -14825.88974546072, -13846.659820873718, -8598.470222767619, -14485.316215195206, -14216.447081142316, -10992.632626608924, -14457.890624748545, -11818.037845854504, -14402.525353732748, -16021.864536030835, -12546.123569741676, -11597.604942036265, -10943.034105662598, -15353.077990183592, -13923.2368973776, -20711.282874498713, 0.0115, -0.029859375, 0.990796875, 192.0, 0.0, 0.0, 0.0, 0.0, 0.0, 0.0, 0.0, 0.0, 0.0, 1.644586594702519E9, 0.0, 2022-02-12 00:36:34.702
110.0, -14829.063693173373, -13845.07284701739, -8614.451720053163, -14493.854581577132, -14224.940744035333, -10999.293446456606, -14458.874101504578, -11823.357561034867, -14420.205583596897, -16025.016131999033, -12556.539482657849, -11625.656381327675, -10947.146826642374, -15363.80682752214, -13939.419560363242, -20717.742528646297, 0.0115, -0.029859375, 0.990796875, 192.0, 0.0, 0.0, 0.0, 0.0, 0.0, 0.0, 0.0, 0.0, 0.0, 1.644586594710761E9, 0.0, 2022-02-12 00:36:34.710
112.0, -14818.379559323736, -13830.946544521636, -8603.924048414714, -14504.11403228212, -14232.763854594692, -11003.22735348074, -14465.110238207608, -11811.332322517912, -14402.99474036631, -16035.856728059856, -12556.919462313588, -11623.689427815609, -10964.245911150683, -15355.000240206748, -13927.170804401732, -20709.740604131297, 0.0115, -0.029859375, 0.990796875, 192.0, 0.0, 0.0, 0.0, 0.0, 0.0, 0.0, 0.0, 0.0, 0.0, 1.644586594718417E9, 0.0, 2022-02-12 00:36:34.718
114.0, -14795.536076490413, -13834.83574805686, -8613.80351946396, -14486.254988462328, -14225.47718590226, -10999.315798201062, -14464.730258551868, -11838.422636797743, -14408.336807291129, -16031.922821035723, -12553.164369245098, -11609.049035197382, -10950.633698777403, -15356.94484197436, -13933.652810293772, -20723.308113015668, 0.0115, -0.029859375, 0.990796875, 192.0, 0.0, 0.0, 0.0, 0.0, 0.0, 0.0, 0.0, 0.0, 0.0, 1.644586594727264E9, 0.0, 2022-02-12 00:36:34.727
116.0, -14825.733283249532, -13856.092257033857, -8610.875440940314, -14508.830250362189, -14233.38970343944, -10992.923199286843, -14462.226863172873, -11818.641342954797, -14422.32899932015, -16038.136605994297, -12568.318851985796, -11626.416340639156, -10953.159445900852, -15359.582347820085, -13947.354429644874, -20719.39655773599, 0.01075, -0.0299296875, 0.9873984375, 192.0, 0.0, 40.0, 127.5, 8.0, 15.0, 96.0, 0.0, 0.0, 0.0, 1.644586594732202E9, 0.0, 2022-02-12 00:36:34.732
118.0, -14815.07150114435, -13847.620945885295, -8599.565458245928, -14484.8691803061, -14223.800805068113, -10988.206981206773, -14457.443589859438, -11819.758930177562, -14410.19200208092, -16033.330980936407, -12553.29847971183, -11606.567991562843, -10961.340184371495, -15356.60956580753, -13931.819967248437, -20709.226514008824, 0.01075, -0.0299296875, 0.9873984375, 192.0, 0.0, 0.0, 0.0, 0.0, 0.0, 0.0, 0.0, 0.0, 0.0, 1.644586594740164E9, 0.0, 2022-02-12 00:36:34.740
120.0, -14825.755634993988, -13865.50234144954, -8613.17767061921, -14484.623311117091, -14223.845508557024, -10986.485896883714, -14448.949926966421, -11818.462528999155, -14420.786728952735, -16026.334884921896, -12556.539482657849, -11617.810919023863, -10953.338259856495, -15363.51625484422, -13942.928784242724, -20715.417947222944, 0.01075, -0.0299296875, 0.9873984375, 192.0, 0.0, 0.0, 0.0, 0.0, 0.0, 0.0, 0.0, 0.0, 0.0, 1.6445865947482E9, 0.0, 2022-02-12 00:36:34.748
122.0, -14820.12299539125, -13836.467425402097, -8603.32055131442, -14496.626197889591, -14237.792997097135, -10991.962074275265, -14469.804104543222, -11816.696741187185, -14412.628342226548, -16040.640001373293, -12551.19741573303, -11618.77204403544, -10963.329489628017, -15369.171246191412, -13935.239784150099, -20706.544304674186, 0.01075, -0.0299296875, 0.9873984375, 192.0, 0.0, 0.0, 0.0, 0.0, 0.0, 0.0, 0.0, 0.0, 0.0, 1.644586594755365E9, 0.0, 2022-02-12 00:36:34.755
124.0, -14804.767346950453, -13838.635544614262, -8614.161147375244, -14481.650529104536, -14222.9067352899, -10980.473277625237, -14456.169540425486, -11832.410017539265, -14424.452415043404, -16031.878117546812, -12557.76882860289, -11625.991657494505, -10960.669632037834, -15371.786400292684, -13940.738313286105, -20717.429604223922, 0.01075, -0.0299296875, 0.9873984375, 192.0, 0.0, 0.0, 0.0, 0.0, 0.0, 0.0, 0.0, 0.0, 0.0, 1.644586594762676E9, 0.0, 2022-02-12 00:36:34.762
126.0, -14814.959742422074, -13852.985364554568, -8610.51781302903, -14505.96922707191, -14227.690008603337, -10990.151582974386, -14460.282261405262, -11826.419750025243, -14427.38049356705, -16039.388303683794, -12569.39173571965, -11628.405645895678, -10966.771658274134, -15354.150873917446, -13950.438970379708, -20720.760014147763, 0.01, -0.028, 0.982, 192.0, 0.0, 40.0, 127.5, 16.0, 15.0, 88.0, 0.0, 0.0, 0.0, 1.644586594770874E9, 0.0, 2022-02-12 00:36:34.770
128.0, -14835.948030465608, -13860.450847202641, -8604.639304237284, -14490.792392586756, -14219.084586988043, -10979.512152613659, -14450.29103163374, -11797.541296188987, -14413.365949793571, -16023.719730820625, -12558.506436169915, -11601.605904293765, -10948.622041776425, -15352.161568660924, -13928.958943958158, -20711.81931636564, 0.01, -0.028, 0.982, 192.0, 0.0, 0.0, 0.0, 0.0, 0.0, 0.0, 0.0, 0.0, 0.0, 1.644586594777974E9, 0.0, 2022-02-12 00:36:34.777
130.0, -14834.003428697995, -13864.921196093703, -8616.999818921067, -14489.652453619536, -14226.035979513643, -10987.849353295489, -14456.795389270233, -11809.499479472575, -14434.398941326017, -16056.643850403292, -12559.981651303966, -11623.510613859966, -10953.584129045503, -15369.685336313885, -13942.481749353617, -20721.274104270233, 0.01, -0.028, 0.982, 192.0, 0.0, 0.0, 0.0, 0.0, 0.0, 0.0, 0.0, 0.0, 0.0, 1.644586594785408E9, 0.0, 2022-02-12 00:36:34.785
132.0, -14823.274591359448, -13847.173910996189, -8606.785071704993, -14501.409471203027, -14232.920316805878, -10993.034958009119, -14460.975165483376, -11809.924162617226, -14430.085054646142, -16042.517547907539, -12555.287784968352, -11617.5426980904, -10951.706582511257, -15360.856397254038, -13939.106635940867, -20714.72504314483, 0.01, -0.028, 0.982, 192.0, 0.0, 0.0, 0.0, 0.0, 0.0, 0.0, 0.0, 0.0, 0.0, 1.64458659480098E9, 0.0, 2022-02-12 00:36:34.800
134.0, -14801.258123070971, -13836.825053313381, -8609.221411850622, -14481.024680259787, -14221.364464922484, -10978.774545046634, -14447.742932765834, -11809.924162617226, -14425.100615632608, -16037.130777493809, -12558.90876757011, -11618.481471357522, -10941.558890528548, -15349.546414559652, -13937.676124295727, -20719.038929824703, 0.01, -0.028, 0.982, 192.0, 0.0, 0.0, 0.0, 0.0, 0.0, 0.0, 0.0, 0.0, 0.0, 1.64458659480854E9, 0.0, 2022-02-12 00:36:34.808
136.0, -14821.754672736488, -13825.157442707712, -8609.690798484182, -14496.670901378502, -14238.217680241785, -10984.496591627192, -14460.326964894173, -11810.415900995244, -14430.397979068517, -16032.302800691463, -12569.34703223074, -11627.757445306474, -10979.266283424651, -15365.03617346718, -13951.891833769303, -20720.268275769744, 0.014, -0.024, 0.988, 192.0, 0.0, 56.0, 127.5, 32.0, 15.0, 112.0, 0.0, 0.0, 0.0, 1.644586594814962E9, 0.0, 2022-02-12 00:36:34.814
138.0, -14814.244486599504, -13845.631640628773, -8605.46631878213, -14481.650529104536, -14231.310991205097, -10973.141905443896, -14446.558290309704, -11799.731767145608, -14406.392205523516, -16019.227030185108, -12563.334412972263, -11609.361959619757, -10953.762943001146, -15348.093551170059, -13934.703342283172, -20712.713386143852, 0.014, -0.024, 0.988, 192.0, 0.0, 0.0, 0.0, 0.0, 0.0, 0.0, 0.0, 0.0, 0.0, 1.644586594823495E9, 0.0, 2022-02-12 00:36:34.823
140.0, -14824.16866113766, -13865.79291412746, -8618.877365455313, -14492.28995946526, -14242.263345988196, -10984.116611971453, -14464.462037618405, -11815.400340008777, -14433.303705847706, -16049.781864855513, -12578.265378268406, -11618.459119613066, -10981.277940425629, -15368.746563046761, -13954.66345008176, -20724.023368838236, 0.014, -0.024, 0.988, 192.0, 0.0, 0.0, 0.0, 0.0, 0.0, 0.0, 0.0, 0.0, 0.0, 1.644586594830971E9, 0.0, 2022-02-12 00:36:34.830
142.0, -14831.790605996921, -13849.342030208354, -8612.395359563276, -14504.695177637957, -14245.504348934217, -10990.285693441117, -14472.352203411128, -11805.230296281612, -14439.450435572915, -16040.014152528543, -12571.403392720627, -11613.877011999728, -10964.715297784245, -15368.366583391022, -13948.069685467444, -20720.268275769744, 0.014, -0.024, 0.988, 192.0, 0.0, 0.0, 0.0, 0.0, 0.0, 0.0, 0.0, 0.0, 0.0, 1.644586594838473E9, 0.0, 2022-02-12 00:36:34.838
144.0, -14841.692428790622, -13865.859969360825, -8621.09018815639, -14492.736994354367, -14238.932936064355, -10984.809516049567, -14456.728334036869, -11812.584020207409, -14430.777958724257, -16039.812986828447, -12554.058439023309, -11613.608791066265, -10963.284786139106, -15357.928318730394, -13954.037601237012, -20729.991284607804, 0.014, -0.024, 0.988, 192.0, 0.0, 0.0, 0.0, 0.0, 0.0, 0.0, 0.0, 0.0, 0.0, 1.644586594845567E9, 0.0, 2022-02-12 00:36:34.845
146.0, -14827.007332683484, -13861.009640814023, -8621.917202701236, -14513.322950997705, -14251.092285048044, -10997.974693533743, -14469.535883609758, -11816.137947575802, -14449.53107232226, -16070.412524987762, -12575.694927656046, -11644.007163525483, -10977.209922934762, -15376.167342205925, -13964.073534497446, -20730.10304333008, 0.016, -0.024, 0.986, 192.0, 0.0, 64.0, 127.5, 32.0, 15.0, 104.0, 0.0, 0.0, 0.0, 1.644586594852947E9, 0.0, 2022-02-12 00:36:34.852
148.0, -14846.296888148414, -13886.289463792977, -8616.0833973984, -14503.264665992818, -14243.626802399971, -10997.214734222262, -14465.24434867434, -11813.031055096515, -14433.080188403153, -16051.79352185649, -12574.44322996655, -11624.807015038374, -10967.777486774623, -15364.075048455603, -13947.33207790042, -20729.119566574045, 0.016, -0.024, 0.986, 192.0, 0.0, 0.0, 0.0, 0.0, 0.0, 0.0, 0.0, 0.0, 0.0, 1.644586594860686E9, 0.0, 2022-02-12 00:36:34.860
150.0, -14872.873112305775, -13903.768527957027, -8623.258307368555, -14506.595075916657, -14247.806578613112, -10993.325530687038, -14468.597110342636, -11813.43338649671, -14452.973240968377, -16084.51647573906, -12592.391680764162, -11645.191805981614, -10979.13217295792, -15385.733888832796, -13963.358278674876, -20740.116624846058, 0.016, -0.024, 0.986, 192.0, 0.0, 0.0, 0.0, 0.0, 0.0, 0.0, 0.0, 0.0, 0.0, 1.644586594867705E9, 0.0, 2022-02-12 00:36:34.867
152.0, -14842.921774735663, -13872.476085719596, -8613.691760741684, -14515.647532421057, -14251.807540870614, -10992.565571375559, -14472.978052255876, -11806.10201431537, -14448.413485099494, -16059.03548706001, -12583.9203696156, -11653.953689808093, -10980.02624273613, -15382.828162053605, -13954.328173914932, -20727.130261317525, 0.016, -0.024, 0.986, 192.0, 0.0, 0.0, 0.0, 0.0, 0.0, 0.0, 0.0, 0.0, 0.0, 1.644586594875766E9, 0.0, 2022-02-12 00:36:34.875
154.0, -14831.187108896627, -13891.966806884624, -8626.074627169923, -14494.972168799899, -14246.979564068266, -10988.005815506676, -14476.822552302188, -11823.849299412883, -14439.070455917175, -16059.616632415848, -12591.497610985949, -11631.713704075064, -10980.294463669594, -15385.420964410421, -13959.402019906285, -20740.451901012886, 0.016, -0.024, 0.986, 192.0, 0.0, 0.0, 0.0, 0.0, 0.0, 0.0, 0.0, 0.0, 0.0, 1.644586594883555E9, 0.0, 2022-02-12 00:36:34.883
156.0, -14842.519443335468, -13872.565492697418, -8622.677162012717, -14518.01681733332, -14259.496540963239, -11002.333283702528, -14478.275415691784, -11811.041749839993, -14455.655450303013, -16090.551446741993, -12595.185648821074, -11647.717553105063, -10989.861010296467, -15389.936016790392, -13974.668261369261, -20742.038874869213, 0.012, -0.02, 0.988, 192.0, 0.0, 48.0, 127.5, 48.0, 15.0, 112.0, 0.0, 0.0, 0.0, 1.64458659488996E9, 0.0, 2022-02-12 00:36:34.889
158.0, -14860.110266221795, -13865.07765830489, -8610.629571751306, -14495.732128111378, -14243.716209377792, -10985.815344550056, -14475.34733716814, -11805.230296281612, -14440.18804313994, -16047.524338665527, -12574.44322996655, -11634.217099454057, -10963.731821028212, -15378.782496307194, -13959.200854206189, -20736.450938755388, 0.012, -0.02, 0.988, 192.0, 0.0, 0.0, 0.0, 0.0, 0.0, 0.0, 0.0, 0.0, 0.0, 1.644586594898035E9, 0.0, 2022-02-12 00:36:34.898
160.0, -14866.882844791753, -13897.46533602063, -8617.1339293878, -14502.839982848167, -14245.839625101045, -10980.763850303156, -14468.708869064913, -11814.729787675118, -14458.33765963765, -16077.073344835442, -12588.25660803993, -11644.118922247759, -10998.622894122946, -15401.268351229233, -13969.460304911174, -20743.849366170092, 0.012, -0.02, 0.988, 192.0, 0.0, 0.0, 0.0, 0.0, 0.0, 0.0, 0.0, 0.0, 0.0, 1.644586594906397E9, 0.0, 2022-02-12 00:36:34.906
162.0, -14851.951879495607, -13878.689870678172, -8614.630534008806, -14520.363750501127, -14262.849302631534, -10996.901809799887, -14480.555293626225, -11813.00870335206, -14460.304613149718, -16087.019871118055, -12598.20313432254, -11647.561090893876, -10995.583056877025, -15390.09247900158, -13964.900549042291, -20737.836746911617, 0.012, -0.02, 0.988, 192.0, 0.0, 0.0, 0.0, 0.0, 0.0, 0.0, 0.0, 0.0, 0.0, 1.644586594919456E9, 0.0, 2022-02-12 00:36:34.919
164.0, -14842.385332868736, -13885.104821336845, -8621.85014746787, -14501.051843291742, -14252.00870657071, -10988.922237029343, -14472.307499922217, -11822.91052614576, -14452.995592712832, -16063.192911528697, -12593.196343564552, -11643.560128636376, -10983.13313521542, -15383.789287065183, -13962.91124378577, -20745.034008626226, 0.012, -0.02, 0.988, 192.0, 0.0, 0.0, 0.0, 0.0, 0.0, 0.0, 0.0, 0.0, 0.0, 1.644586594927792E9, 0.0, 2022-02-12 00:36:34.927
166.0, -14850.230795172549, -13882.199094557654, -8621.045484667478, -14516.519250454814, -14259.317727007596, -10994.353710931982, -14476.844904046644, -11808.471299227633, -14461.064572461197, -16083.242426305107, -12606.361521048728, -11644.454198414589, -10992.27499869764, -15386.627958611007, -13973.707136357682, -20745.01165688177, 0.014, -0.026000000000000002, 0.992, 192.0, 0.0, 56.0, 127.5, 24.0, 15.5, 0.0, 0.0, 0.0, 0.0, 1.644586594935502E9, 0.0, 2022-02-12 00:36:34.935
168.0, -14858.165664454184, -13880.746231168061, -8613.937629930691, -14507.153869528041, -14253.953308338323, -10992.431460908827, -14469.267662676295, -11800.067043312436, -14450.492197333837, -16075.75459191258, -12575.627872422681, -11635.893480288207, -10977.165219445851, -15370.80292353665, -13956.965679760657, -20738.86492715656, 0.014, -0.026000000000000002, 0.992, 192.0, 0.0, 0.0, 0.0, 0.0, 0.0, 0.0, 0.0, 0.0, 0.0, 1.644586594942773E9, 0.0, 2022-02-12 00:36:34.942
170.0, -14852.331859151347, -13881.349728268353, -8629.203871393665, -14510.372520729605, -14252.031058315166, -10991.917370786354, -14472.039278988754, -11811.108805073358, -14464.305575407217, -16079.152057069787, -12591.877590641689, -11640.117959990259, -10984.094260226997, -15383.498714387264, -13970.354374689387, -20751.82893894064, 0.014, -0.026000000000000002, 0.992, 192.0, 0.0, 0.0, 0.0, 0.0, 0.0, 0.0, 0.0, 0.0, 0.0, 1.644586594950246E9, 0.0, 2022-02-12 00:36:34.950
172.0, -14841.960649724086, -13873.928949109191, -8621.224298623121, -14526.219907548417, -14271.9688143693, -10995.694815599301, -14476.822552302188, -11810.14768006178, -14460.349316638627, -16070.211359287663, -12594.91742788761, -11636.072294243848, -10996.857106310978, -15373.798057293661, -13964.185293219722, -20741.837709169115, 0.014, -0.026000000000000002, 0.992, 192.0, 0.0, 0.0, 0.0, 0.0, 0.0, 0.0, 0.0, 0.0, 0.0, 1.644586594958342E9, 0.0, 2022-02-12 00:36:34.958
174.0, -14858.99267899903, -13890.692757450672, -8632.601336550873, -14505.544543927259, -14267.364355011507, -10984.65305383838, -14469.088848720652, -11811.95817136266, -14460.997517227832, -16050.698286378181, -12590.290616785362, -11640.520291390454, -11003.875554069944, -15379.18482770739, -13966.71104034317, -20749.794930195207, 0.014, -0.026000000000000002, 0.992, 192.0, 0.0, 0.0, 0.0, 0.0, 0.0, 0.0, 0.0, 0.0, 0.0, 1.644586594966142E9, 0.0, 2022-02-12 00:36:34.966
176.0, -14860.378487155258, -13882.89199863577, -8633.003667951069, -14526.644590693068, -14278.674337705892, -11003.763795347668, -14479.14713372554, -11814.372159763832, -14477.962491269409, -16074.882873878823, -12599.186611078574, -11649.282175216935, -11019.834699611032, -15389.488981901288, -13982.401964950797, -20744.765787692762, 0.006, -0.024, 0.986, 192.0, 0.0, 24.0, 127.5, 32.0, 15.0, 104.0, 0.0, 0.0, 0.0, 1.64458659497245E9, 0.0, 2022-02-12 00:36:34.972
178.0, -14857.428056887158, -13872.811361886426, -8626.85693822586, -14521.995427846365, -14275.455686504327, -10993.370234175949, -14481.158790726518, -11813.679255685718, -14460.304613149718, -16078.101525080387, -12596.72791918849, -11644.387143181222, -11003.674388369845, -15377.441391639877, -13964.118237986355, -20741.904764402483, 0.006, -0.024, 0.986, 192.0, 0.0, 0.0, 0.0, 0.0, 0.0, 0.0, 0.0, 0.0, 0.0, 1.644586594981218E9, 0.0, 2022-02-12 00:36:34.981
180.0, -14871.04026926044, -13891.318606295421, -8643.263118656054, -14517.145099299563, -14273.667546947903, -10997.684120855823, -14472.933348766965, -11817.143776076291, -14475.548502868236, -16080.046126848, -12599.9242186456, -11647.605794382787, -11007.630647138436, -15389.421926667921, -13975.741145103115, -20752.566546507664, 0.006, -0.024, 0.986, 192.0, 0.0, 0.0, 0.0, 0.0, 0.0, 0.0, 0.0, 0.0, 0.0, 1.644586594987892E9, 0.0, 2022-02-12 00:36:34.987
182.0, -14849.13555969424, -13880.343899767864, -8637.697534286683, -14527.337494771184, -14280.484829006771, -11000.902772057387, -14473.961529011909, -11801.3857962353, -14468.083020220163, -16086.61753971786, -12603.96988439201, -11646.331744948835, -10997.7958795781, -15381.643519597474, -13966.174598476244, -20737.881450400528, 0.006, -0.024, 0.986, 192.0, 0.0, 0.0, 0.0, 0.0, 0.0, 0.0, 0.0, 0.0, 0.0, 1.644586594994847E9, 0.0, 2022-02-12 00:36:34.994
184.0, -14851.840120773331, -13900.952208155657, -8641.05029595498, -14505.67865439399, -14274.583968470572, -10989.45867889627, -14472.799238300233, -11809.588886450398, -14464.126761451575, -16077.587434957915, -12601.377082035195, -11634.06063724287, -11004.300237214595, -15372.524007859709, -13967.649813610295, -20743.894069659003, 0.006, -0.024, 0.986, 192.0, 0.0, 0.0, 0.0, 0.0, 0.0, 0.0, 0.0, 0.0, 0.0, 1.644586595003179E9, 0.0, 2022-02-12 00:36:35.003
186.0, -14882.663176377198, -13895.565437741929, -8649.499255359086, -14535.339419286183, -14297.807430959634, -11014.47028094176, -14487.77490708529, -11807.778395149517, -14485.20445647293, -16086.08109785093, -12620.39841656666, -11652.322012462857, -11033.268098028671, -15402.542400663186, -13983.631310895838, -20749.280840072734, 0.01, -0.028, 0.986, 192.0, 0.0, 40.0, 127.5, 16.0, 15.0, 104.0, 0.0, 0.0, 0.0, 1.644586595010438E9, 0.0, 2022-02-12 00:36:35.010
188.0, -14857.6068708428, -13892.950283640657, -8642.145531433289, -14522.621276691114, -14289.44787853335, -10991.135059730419, -14480.220017459396, -11799.262380512046, -14471.279319677273, -16069.22788253163, -12607.63557048268, -11645.772951337452, -11023.679199657345, -15390.025423768215, -13970.980223534134, -20746.91155516047, 0.01, -0.028, 0.986, 192.0, 0.0, 0.0, 0.0, 0.0, 0.0, 0.0, 0.0, 0.0, 0.0, 1.644586595018515E9, 0.0, 2022-02-12 00:36:35.018
190.0, -14866.055830246905, -13888.457583005142, -8647.08526695791, -14526.175204059507, -14282.742355196759, -10994.443117909805, -14475.660261590512, -11809.074796327925, -14481.784639571268, -16087.578664729437, -12613.447024041061, -11657.440561943122, -11024.081531057542, -15387.76789757823, -13983.743069618115, -20753.661781985975, 0.01, -0.028, 0.986, 192.0, 0.0, 0.0, 0.0, 0.0, 0.0, 0.0, 0.0, 0.0, 0.0, 1.644586595025176E9, 0.0, 2022-02-12 00:36:35.025
192.0, -14855.774027797464, -13893.263208063032, -8635.954098219168, -14533.260707051839, -14286.028061631689, -11001.75213834669, -14477.29193893575, -11792.690967642186, -14477.38134591357, -16076.983937857622, -12616.531564775893, -11644.16362573667, -11026.674333414358, -15396.306263960156, -13973.349508446398, -20744.117587103556, 0.01, -0.028, 0.986, 192.0, 0.0, 0.0, 0.0, 0.0, 0.0, 0.0, 0.0, 0.0, 0.0, 1.644586595033133E9, 0.0, 2022-02-12 00:36:35.033
194.0, -14876.538798396445, -13903.2320860901, -8644.626575067829, -14516.832174877189, -14287.100945365542, -11000.634551123923, -14475.414392401504, -11812.941648118693, -14467.188950441952, -16076.715716924158, -12611.63653274018, -11652.523178162954, -11018.694760643812, -15391.47828715781, -13971.136685745321, -20749.839633684118, 0.011, -0.028999999999999998, 0.988, 192.0, 0.0, 48.0, 127.5, 8.0, 15.0, 120.0, 0.0, 0.0, 0.0, 1.644586595048147E9, 0.0, 2022-02-12 00:36:35.048
196.0, -14898.465859707101, -13921.962847943647, -8640.603261065873, -14529.63972445008, -14306.189335130375, -11009.687007628323, -14484.802125072734, -11799.463546212142, -14507.667959650513, -16096.161734600275, -12621.11367238923, -11657.73113462104, -11042.275851044162, -15397.982644794303, -13987.72168013116, -20756.63456399853, 0.011, -0.028999999999999998, 0.988, 192.0, 0.0, 0.0, 0.0, 0.0, 0.0, 0.0, 0.0, 0.0, 0.0, 1.644586595054667E9, 0.0, 2022-02-12 00:36:35.054
198.0, -14882.663176377198, -13905.37785355781, -8639.530377332017, -14518.01681733332, -14303.775346729202, -11003.763795347668, -14478.275415691784, -11786.633644894797, -14491.619407131602, -16096.362900300373, -12615.302218830851, -11636.25110819949, -11022.80748162359, -15396.552133149164, -13969.10267699989, -20746.330409804632, 0.011, -0.028999999999999998, 0.988, 192.0, 0.0, 0.0, 0.0, 0.0, 0.0, 0.0, 0.0, 0.0, 0.0, 1.644586595062832E9, 0.0, 2022-02-12 00:36:35.062
200.0, -14882.640824632745, -13926.813176490448, -8649.678069314727, -14523.02360809131, -14310.324407854607, -11007.764757605168, -14485.025642517287, -11803.688025914196, -14505.991578816365, -16102.107298625388, -12625.44991081356, -11660.860378844784, -11052.311784304595, -15413.38299672401, -13986.134706274834, -20758.646220999508, 0.011, -0.028999999999999998, 0.988, 192.0, 0.0, 0.0, 0.0, 0.0, 0.0, 0.0, 0.0, 0.0, 0.0, 1.64458659507065E9, 0.0, 2022-02-12 00:36:35.070
202.0, -14886.284158978959, -13910.429347804708, -8644.179540178722, -14532.679561696, -14321.433224848894, -11001.774490091144, -14492.088793765164, -11792.690967642186, -14497.810840345723, -16093.233656076629, -12627.059236414343, -11663.944919579617, -11035.637382940935, -15399.010825039248, -13977.372822448353, -20746.643334227007, 0.011, -0.028999999999999998, 0.988, 192.0, 0.0, 0.0, 0.0, 0.0, 0.0, 0.0, 0.0, 0.0, 0.0, 1.644586595077703E9, 0.0, 2022-02-12 00:36:35.077
204.0, -14880.539760653945, -13920.934667698702, -8649.275737914531, -14515.893401610067, -14317.208745146841, -10997.460603411271, -14489.406584430526, -11805.543220703987, -14498.034357790275, -16090.082060108432, -12629.048541670865, -11651.15972175118, -11051.104790104007, -15394.51812440373, -13977.953967804191, -20752.186566851924, 0.0095, -0.0275, 0.989, 192.0, 0.0, 32.0, 127.5, 24.0, 15.0, 120.0, 0.0, 0.0, 0.0, 1.644586595085376E9, 0.0, 2022-02-12 00:36:35.085
206.0, -14898.13058354027, -13922.052254921467, -8656.651813584784, -14539.698009454967, -14331.938544742889, -11009.731711117234, -14494.323968210694, -11808.04661608298, -14519.223811533906, -16098.933350912734, -12647.108751190754, -11675.277254018458, -11069.164999623896, -15409.270275744233, -13988.615749909372, -20753.48296803033, 0.0095, -0.0275, 0.989, 192.0, 0.0, 0.0, 0.0, 0.0, 0.0, 0.0, 0.0, 0.0, 0.0, 1.644586595093302E9, 0.0, 2022-02-12 00:36:35.093
208.0, -14888.89931308023, -13918.1854031307, -8653.790790294504, -14525.817576148222, -14329.703370297359, -11010.55872566208, -14489.227770474885, -11793.138002531292, -14500.090718280164, -16088.450382763194, -12635.910527218644, -11657.39585845421, -11047.57321448007, -15394.406365681454, -13972.634252623828, -20747.76092144977, 0.0095, -0.0275, 0.989, 192.0, 0.0, 0.0, 0.0, 0.0, 0.0, 0.0, 0.0, 0.0, 0.0, 1.644586595100378E9, 0.0, 2022-02-12 00:36:35.100
210.0, -14896.454202706123, -13953.076476225433, -8663.33498517692, -14530.287925039283, -14338.599364590571, -11018.13596703243, -14497.989654301366, -11817.411997009754, -14509.433747462483, -16095.938217155723, -12647.30991689085, -11664.414306213177, -11084.632406786968, -15417.473365959331, -13992.996691822613, -20759.316773333165, 0.0095, -0.0275, 0.989, 192.0, 0.0, 0.0, 0.0, 0.0, 0.0, 0.0, 0.0, 0.0, 0.0, 1.64458659510785E9, 0.0, 2022-02-12 00:36:35.107
212.0, -14905.126679554784, -13945.700400555183, -8658.507008374574, -14548.392838048083, -14352.8374258086, -11026.51787120317, -14501.074195036197, -11804.537392203498, -14510.216058518417, -16116.457118565693, -12647.667544802136, -11664.816637613374, -11081.726680007778, -15412.220706012335, -13984.793601607515, -20753.080636630137, 0.0095, -0.0275, 0.989, 192.0, 0.0, 0.0, 0.0, 0.0, 0.0, 0.0, 0.0, 0.0, 0.0, 1.644586595115132E9, 0.0, 2022-02-12 00:36:35.115
214.0, -14906.065452821906, -13945.47688311063, -8664.519627633052, -14527.806881404744, -14345.416646649439, -11020.527603689146, -14493.653415877036, -11811.57819170692, -14512.831212619689, -16108.164621372774, -12647.555786079858, -11667.655309159198, -11081.279645118671, -15414.947618835882, -13975.808200336482, -20755.71814247586, 0.00775, -0.02375, 0.9915, 192.0, 0.0, 24.0, 127.5, 48.0, 15.5, 8.0, 0.0, 0.0, 0.0, 1.64458659512325E9, 0.0, 2022-02-12 00:36:35.123
216.0, -14906.356025499825, -13948.293202911998, -8662.329156676431, -14547.185843847496, -14355.720800843335, -11034.877423629454, -14500.738918869367, -11818.48488074361, -14531.15964307304, -16119.049920922509, -12655.870635017232, -11683.346233766822, -11090.689729534357, -15430.52678472123, -13990.940331332724, -20758.757979721784, 0.00775, -0.02375, 0.9915, 192.0, 0.0, 0.0, 0.0, 0.0, 0.0, 0.0, 0.0, 0.0, 0.0, 1.644586595130237E9, 0.0, 2022-02-12 00:36:35.130
218.0, -14903.852630120831, -13930.165938158743, -8660.85394154238, -14537.418131520526, -14358.000678777777, -11027.724865403756, -14491.194723986951, -11811.086453328902, -14512.741805641868, -16105.9517986717, -12643.912451733644, -11679.009995342494, -11080.542037551646, -15420.71436890535, -13975.67408986975, -20753.170043607955, 0.00775, -0.02375, 0.9915, 192.0, 0.0, 0.0, 0.0, 0.0, 0.0, 0.0, 0.0, 0.0, 0.0, 1.644586595137651E9, 0.0, 2022-02-12 00:36:35.137
220.0, -14925.846746664853, -13957.837397794414, -8671.225150969643, -14538.513366998837, -14368.885978327511, -11024.215641524273, -14493.139325754562, -11816.361465020354, -14526.331666270695, -16091.601978731393, -12658.12816120722, -11670.248111516014, -11100.859773261522, -15426.123491063536, -13992.169677277767, -20758.757979721784, 0.00775, -0.02375, 0.9915, 192.0, 0.0, 0.0, 0.0, 0.0, 0.0, 0.0, 0.0, 0.0, 0.0, 1.644586595145936E9, 0.0, 2022-02-12 00:36:35.145
222.0, -14909.887601123763, -13959.42437165074, -8663.558502621472, -14553.936070672999, -14379.03367031022, -11029.602411938002, -14489.786564086267, -11809.231258539112, -14520.25199177885, -16113.551391786505, -12654.641289072191, -11680.954597110105, -11081.391403840948, -15429.655066687474, -13985.330043474441, -20748.63263948353, 0.00775, -0.02375, 0.9915, 192.0, 0.0, 0.0, 0.0, 0.0, 0.0, 0.0, 0.0, 0.0, 0.0, 1.644586595153555E9, 0.0, 2022-02-12 00:36:35.153
224.0, -14911.42987149118, -13974.780020091537, -8666.95596777868, -14532.25487855135, -14367.880149827022, -11023.813310124078, -14483.975110527886, -11814.640380697296, -14515.356959743138, -16118.736996500134, -12641.54316682138, -11668.12469579276, -11098.356377882526, -15420.200278782879, -13976.188179992221, -20751.650124984997, 0.009875, -0.023875, 0.99175, 192.0, 0.0, 48.0, 127.5, 32.0, 15.5, 0.0, 0.0, 0.0, 0.0, 1.644586595167323E9, 0.0, 2022-02-12 00:36:35.167
226.0, -14918.023636105496, -13977.10460151489, -8676.254293472088, -14549.443370037481, -14387.639091925514, -11032.821063139567, -14495.799183344745, -11820.854165655872, -14529.125634327607, -16122.916772713277, -12659.581024596815, -11676.350137752312, -11105.508936108225, -15433.566621967153, -13994.807183123492, -20756.58986050962, 0.009875, -0.023875, 0.99175, 192.0, 0.0, 0.0, 0.0, 0.0, 0.0, 0.0, 0.0, 0.0, 0.0, 1.644586595175482E9, 0.0, 2022-02-12 00:36:35.175
228.0, -14924.416235019713, -13970.264967711564, -8674.689671360216, -14546.314125813738, -14384.845123868601, -11037.604336453001, -14485.20445647293, -11810.259438784056, -14518.06152082223, -16112.210287119186, -12661.704440320069, -11681.44633548812, -11091.42733710138, -15429.409197498466, -13982.200799250699, -20750.554889506686, 0.009875, -0.023875, 0.99175, 192.0, 0.0, 0.0, 0.0, 0.0, 0.0, 0.0, 0.0, 0.0, 0.0, 1.644586595183339E9, 0.0, 2022-02-12 00:36:35.183
230.0, -14945.113950385326, -13987.900494086802, -8681.19402899671, -14548.415189792537, -14393.85287688409, -11040.353601021005, -14496.670901378502, -11832.991162895103, -14537.574593731713, -16128.817633249479, -12663.64904208768, -11701.78642294245, -11117.511822880724, -15446.374171540043, -14001.87033437137, -20766.961069936882, 0.009875, -0.023875, 0.99175, 192.0, 0.0, 0.0, 0.0, 0.0, 0.0, 0.0, 0.0, 0.0, 0.0, 1.644586595190039E9, 0.0, 2022-02-12 00:36:35.190
232.0, -14931.412331034224, -13967.895682799302, -8675.740203349615, -14565.067239411741, -14411.175478836953, -11047.506159246703, -14498.660206635024, -11825.995066880592, -14531.517270984325, -16124.14611865832, -12665.906568277665, -11704.423928788177, -11112.594439100558, -15433.72308417834, -13996.282398257543, -20760.25554660029, 0.009875, -0.023875, 0.99175, 192.0, 0.0, 0.0, 0.0, 0.0, 0.0, 0.0, 0.0, 0.0, 0.0, 1.644586595199437E9, 0.0, 2022-02-12 00:36:35.199
234.0, -14912.972141858596, -13992.951988333702, -8685.262046487576, -14540.860300166643, -14408.560324735681, -11045.159226078895, -14492.759346098823, -11817.300238287478, -14517.614485933125, -16114.221944120163, -12670.600434613281, -11683.592102955832, -11107.967627998309, -15437.679342946929, -13989.062784798478, -20758.378000066044, 0.0109375, -0.0229375, 0.9898750000000001, 192.0, 0.0, 48.0, 127.5, 40.0, 15.0, 112.0, 0.0, 0.0, 0.0, 1.644586595206661E9, 0.0, 2022-02-12 00:36:35.206
236.0, -14942.878775939796, -14006.720662918171, -8681.95398830819, -14562.049753910274, -14420.362045808084, -11057.8103134406, -14495.083927522175, -11836.031000141025, -14532.903079140555, -16122.894420968822, -12687.61011214377, -11716.829146960872, -11122.876241549999, -15469.664689262474, -14007.368863507374, -20763.38479082403, 0.0109375, -0.0229375, 0.9898750000000001, 192.0, 0.0, 0.0, 0.0, 0.0, 0.0, 0.0, 0.0, 0.0, 0.0, 1.644586595212556E9, 0.0, 2022-02-12 00:36:35.212
238.0, -14956.334526101891, -14002.183258793744, -8671.202799225188, -14553.421980550525, -14423.491290031827, -11054.8598831725, -14491.194723986951, -11816.070892342435, -14531.673733195512, -16124.995484947622, -12671.069821246841, -11710.74947246903, -11118.048264747653, -15456.67832573394, -13982.513723673073, -20757.930965176936, 0.0109375, -0.0229375, 0.9898750000000001, 192.0, 0.0, 0.0, 0.0, 0.0, 0.0, 0.0, 0.0, 0.0, 0.0, 1.64458659522104E9, 0.0, 2022-02-12 00:36:35.221
240.0, -14955.5298633015, -14004.53019196155, -8682.24456098611, -14541.30733505575, -14423.938324920933, -11062.347717565026, -14489.160715241518, -11827.559688992464, -14540.480320510904, -16128.169432660276, -12685.263178975962, -11715.577449271375, -11125.200822973351, -15475.409087587488, -13994.382499978841, -20765.038819913723, 0.0109375, -0.0229375, 0.9898750000000001, 192.0, 0.0, 0.0, 0.0, 0.0, 0.0, 0.0, 0.0, 0.0, 0.0, 1.644586595227528E9, 0.0, 2022-02-12 00:36:35.227
242.0, -14961.833055237897, -14028.714779462192, -8684.792659854014, -14565.514274300847, -14440.769188495779, -11073.52358979268, -14498.459040934926, -11822.262325556556, -14539.854471666154, -16133.936182729743, -12685.03966153141, -11722.774710985985, -11134.320334711116, -15475.833770732139, -13993.488430200628, -20756.76867446526, 0.0109375, -0.0229375, 0.9898750000000001, 192.0, 0.0, 0.0, 0.0, 0.0, 0.0, 0.0, 0.0, 0.0, 0.0, 1.644586595235802E9, 0.0, 2022-02-12 00:36:35.235
244.0, -14961.788351748986, -14054.553396052528, -8695.990883826124, -14542.961364145443, -14440.769188495779, -11062.034793142653, -14503.242314248362, -11840.367238565355, -14534.847680908166, -16147.973078247676, -12687.364242954762, -11713.632847503764, -11143.104570282052, -15471.653994518996, -13995.656549412794, -20764.658840257984, 0.01146875, -0.02046875, 0.9879375, 192.0, 0.0, 48.0, 127.5, 56.0, 15.0, 104.0, 0.0, 0.0, 0.0, 1.644586595242338E9, 0.0, 2022-02-12 00:36:35.242
